# Response curve for the HST NH3 1.53um curve
#  
# Wavelength(micron)  Throughput
0.3         0.
1.123784 	0.0004
1.123876 	0.000404
1.123967 	0.000408
1.124058 	0.000412
1.124149 	0.000415
1.12424	     0.000419
1.124332 	0.000423
1.124423 	0.000427
1.124514 	0.00043
1.124605 	0.000434
1.124696 	0.000438
1.124788 	0.000442
1.124879 	0.000445
1.12497	     0.000449
1.125061 	0.000453
1.125153 	0.000457
1.125244 	0.000461
1.125335 	0.000461
1.125427 	0.000453
1.125518 	0.000446
1.125609 	0.000438
1.1257	     0.000431
1.125792 	0.000423
1.125883 	0.000416
1.125974 	0.000408
1.126066 	0.000401
1.126157 	0.000393
1.126248 	0.000386
1.12634	     0.000378
1.126431 	0.000371
1.126523 	0.000363
1.126614 	0.000356
1.126705 	0.000348
1.126797 	0.000341
1.126888 	0.000333
1.12698	     0.000326
1.127071 	0.000318
1.127162 	0.000311
1.127254 	0.000303
1.127345 	0.000296
1.127437 	0.000288
1.127528 	0.000281
1.12762	     0.000273
1.127711 	0.000266
1.127803 	0.000258
1.127894 	0.000251
1.127986 	0.000243
1.128077 	0.000236
1.128169 	0.000228
1.12826	     0.000221
1.128352 	0.000213
1.128443 	0.000206
1.128535 	0.000198
1.128626 	0.00019
1.128718 	0.000183
1.128809 	0.000175
1.128901 	0.000168
1.128993 	0.00016
1.129084 	0.000153
1.129176 	0.000145
1.129267 	0.000138
1.129359 	0.00013
1.129451 	0.000122
1.129542 	0.000115
1.129634 	0.000107
1.129725 	0.0001
1.129817 	0.000092
1.129909 	0.000085
1.13	     0.000077
1.130092 	0.00007
1.130184 	0.000062
1.130275 	0.000054
1.130367 	0.000052
1.130459 	0.000053
1.130551 	0.000054
1.130642 	0.000055
1.130734 	0.000056
1.130826 	0.000057
1.130917 	0.000058
1.131009 	0.000059
1.131101 	0.00006
1.131193 	0.000061
1.131285 	0.000062
1.131376 	0.000063
1.131468 	0.000064
1.13156	     0.000065
1.131652 	0.000066
1.131743 	0.000066
1.131835 	0.000067
1.131927 	0.000068
1.132019 	0.000069
1.132111 	0.00007
1.132203 	0.000071
1.132294 	0.000072
1.132386 	0.000073
1.132478 	0.000074
1.13257	     0.000075
1.132662 	0.000076
1.132754 	0.000077
1.132846 	0.000078
1.132938 	0.000079
1.133029 	0.00008
1.133121 	0.000081
1.133213 	0.000082
1.133305 	0.000083
1.133397 	0.000084
1.133489 	0.000085
1.133581 	0.000086
1.133673 	0.000087
1.133765 	0.000087
1.133857 	0.000088
1.133949 	0.000089
1.134041 	0.00009
1.134133 	0.000091
1.134225 	0.000092
1.134317 	0.000093
1.134409 	0.000094
1.134501 	0.000095
1.134593 	0.000096
1.134685 	0.000097
1.134777 	0.000098
1.134869 	0.000099
1.134961 	0.0001
1.135053 	0.000101
1.135145 	0.000102
1.135237 	0.000103
1.13533	     0.000104
1.135422 	0.000107
1.135514 	0.00011
1.135606 	0.000113
1.135698 	0.000116
1.13579	     0.000118
1.135882 	0.000121
1.135974 	0.000124
1.136067 	0.000127
1.136159 	0.00013
1.136251 	0.000133
1.136343 	0.000136
1.136435 	0.000139
1.136527 	0.000141
1.13662	     0.000144
1.136712 	0.000147
1.136804 	0.00015
1.136896 	0.000153
1.136989 	0.000156
1.137081 	0.000159
1.137173 	0.000162
1.137265 	0.000164
1.137358 	0.000167
1.13745	     0.00017
1.137542 	0.000173
1.137634 	0.000176
1.137727 	0.000179
1.137819 	0.000182
1.137911 	0.000184
1.138004 	0.000187
1.138096 	0.00019
1.138188 	0.000193
1.13828	     0.000196
1.138373 	0.000199
1.138465 	0.000202
1.138558 	0.000205
1.13865	     0.000208
1.138742 	0.000211
1.138835 	0.000213
1.138927 	0.000216
1.139019 	0.000219
1.139112 	0.000222
1.139204 	0.000225
1.139297 	0.000228
1.139389 	0.000231
1.139482 	0.000234
1.139574 	0.000237
1.139666 	0.000239
1.139759 	0.000242
1.139851 	0.000245
1.139944 	0.000248
1.140036 	0.000251
1.140129 	0.000254
1.140221 	0.000257
1.140314 	0.00026
1.140406 	0.000258
1.140499 	0.000256
1.140591 	0.000254
1.140684 	0.000252
1.140776 	0.00025
1.140869 	0.000248
1.140961 	0.000246
1.141054 	0.000244
1.141147 	0.000242
1.141239 	0.00024
1.141332 	0.000239
1.141424 	0.000237
1.141517 	0.000235
1.141609 	0.000233
1.141702 	0.000231
1.141795 	0.000229
1.141887 	0.000227
1.14198	     0.000225
1.142073 	0.000223
1.142165 	0.000221
1.142258 	0.000219
1.142351 	0.000217
1.142443 	0.000216
1.142536 	0.000214
1.142629 	0.000212
1.142721 	0.00021
1.142814 	0.000208
1.142907 	0.000206
1.142999 	0.000204
1.143092 	0.000202
1.143185 	0.0002
1.143278 	0.000198
1.14337	     0.000196
1.143463 	0.000194
1.143556 	0.000193
1.143649 	0.000191
1.143741 	0.000189
1.143834 	0.000187
1.143927 	0.000185
1.14402	     0.000183
1.144113 	0.000181
1.144205 	0.000179
1.144298 	0.000177
1.144391 	0.000175
1.144484 	0.000173
1.144577 	0.000171
1.14467	     0.00017
1.144762 	0.000168
1.144855 	0.000166
1.144948 	0.000164
1.145041 	0.000162
1.145134 	0.00016
1.145227 	0.000158
1.14532	     0.000156
1.145413 	0.000157
1.145506 	0.000158
1.145599 	0.000159
1.145691 	0.00016
1.145784 	0.000161
1.145877 	0.000162
1.14597	     0.000163
1.146063 	0.000164
1.146156 	0.000165
1.146249 	0.000166
1.146342 	0.000167
1.146435 	0.000168
1.146528 	0.000169
1.146621 	0.00017
1.146714 	0.000171
1.146807 	0.000172
1.1469	     0.000173
1.146993 	0.000174
1.147086 	0.000175
1.147179 	0.000176
1.147272 	0.000177
1.147366 	0.000178
1.147459 	0.000179
1.147552 	0.00018
1.147645 	0.000181
1.147738 	0.000182
1.147831 	0.000183
1.147924 	0.000184
1.148017 	0.000185
1.14811	 0.000186
1.148204 	0.000187
1.148297 	0.000188
1.14839	 0.000189
1.148483 	0.00019
1.148576 	0.00019
1.148669 	0.000191
1.148762 	0.000192
1.148856 	0.000193
1.148949 	0.000194
1.149042 	0.000195
1.149135 	0.000196
1.149229 	0.000197
1.149322 	0.000198
1.149415 	0.000199
1.149508 	0.0002
1.149601 	0.000201
1.149695 	0.000202
1.149788 	0.000203
1.149881 	0.000204
1.149975 	0.000205
1.150068 	0.000206
1.150161 	0.000207
1.150254 	0.000208
1.150348 	0.000209
1.150441 	0.000209
1.150534 	0.000209
1.150628 	0.000209
1.150721 	0.000209
1.150814 	0.000209
1.150908 	0.000209
1.151001 	0.000209
1.151095 	0.000209
1.151188 	0.000209
1.151281 	0.000209
1.151375 	0.000209
1.151468 	0.000209
1.151562 	0.000209
1.151655 	0.000209
1.151748 	0.000209
1.151842 	0.000209
1.151935 	0.000209
1.152029 	0.000209
1.152122 	0.000209
1.152216 	0.000209
1.152309 	0.000209
1.152403 	0.000209
1.152496 	0.000209
1.15259	 0.000209
1.152683 	0.000209
1.152777 	0.000209
1.15287	 0.000209
1.152964 	0.000209
1.153057 	0.000209
1.153151 	0.000209
1.153244 	0.000209
1.153338 	0.000209
1.153431 	0.000209
1.153525 	0.000209
1.153618 	0.000209
1.153712 	0.000209
1.153806 	0.000209
1.153899 	0.000209
1.153993 	0.000209
1.154086 	0.000209
1.15418	 0.000209
1.154274 	0.000209
1.154367 	0.000209
1.154461 	0.000209
1.154555 	0.000209
1.154648 	0.000209
1.154742 	0.000209
1.154836 	0.000209
1.154929 	0.000209
1.155023 	0.000209
1.155117 	0.000209
1.15521	 0.000209
1.155304 	0.000209
1.155398 	0.000209
1.155492 	0.000208
1.155585 	0.000207
1.155679 	0.000206
1.155773 	0.000205
1.155867 	0.000204
1.15596	 0.000203
1.156054 	0.000202
1.156148 	0.000201
1.156242 	0.0002
1.156335 	0.000199
1.156429 	0.000198
1.156523 	0.000197
1.156617 	0.000196
1.156711 	0.000195
1.156805 	0.000194
1.156898 	0.000193
1.156992 	0.000192
1.157086 	0.000191
1.15718	 0.00019
1.157274 	0.000189
1.157368 	0.000188
1.157462 	0.000187
1.157556 	0.000186
1.157649 	0.000185
1.157743 	0.000184
1.157837 	0.000183
1.157931 	0.000182
1.158025 	0.000181
1.158119 	0.00018
1.158213 	0.000179
1.158307 	0.000178
1.158401 	0.000177
1.158495 	0.000176
1.158589 	0.000175
1.158683 	0.000174
1.158777 	0.000173
1.158871 	0.000172
1.158965 	0.000172
1.159059 	0.000171
1.159153 	0.00017
1.159247 	0.000169
1.159341 	0.000168
1.159435 	0.000167
1.159529 	0.000166
1.159623 	0.000165
1.159717 	0.000164
1.159811 	0.000163
1.159905 	0.000162
1.16	 0.000161
1.160094 	0.00016
1.160188 	0.000159
1.160282 	0.000158
1.160376 	0.000157
1.16047	 0.000156
1.160564 	0.000155
1.160658 	0.000154
1.160753 	0.000153
1.160847 	0.000152
1.160941 	0.000151
1.161035 	0.00015
1.161129 	0.000149
1.161223 	0.000148
1.161318 	0.000147
1.161412 	0.000146
1.161506 	0.000145
1.1616	 0.000144
1.161695 	0.000143
1.161789 	0.000142
1.161883 	0.000141
1.161977 	0.00014
1.162071 	0.000139
1.162166 	0.000138
1.16226	 0.000137
1.162354 	0.000136
1.162449 	0.000135
1.162543 	0.000134
1.162637 	0.000133
1.162732 	0.000132
1.162826 	0.000131
1.16292	 0.00013
1.163015 	0.000129
1.163109 	0.000128
1.163203 	0.000127
1.163298 	0.000126
1.163392 	0.000125
1.163486 	0.000124
1.163581 	0.000124
1.163675 	0.000123
1.16377	 0.000122
1.163864 	0.000121
1.163958 	0.00012
1.164053 	0.000119
1.164147 	0.000118
1.164242 	0.000117
1.164336 	0.000116
1.164431 	0.000115
1.164525 	0.000114
1.16462	 0.000113
1.164714 	0.000112
1.164808 	0.000111
1.164903 	0.00011
1.164997 	0.000109
1.165092 	0.000108
1.165186 	0.000107
1.165281 	0.000106
1.165375 	0.000105
1.16547	 0.000104
1.165565 	0.000103
1.165659 	0.000102
1.165754 	0.000101
1.165848 	0.0001
1.165943 	0.000099
1.166037 	0.000098
1.166132 	0.000097
1.166227 	0.000096
1.166321 	0.000095
1.166416 	0.000094
1.16651	 0.000093
1.166605 	0.000092
1.1667	 0.000091
1.166794 	0.00009
1.166889 	0.000089
1.166984 	0.000088
1.167078 	0.000087
1.167173 	0.000086
1.167268 	0.000085
1.167362 	0.000084
1.167457 	0.000083
1.167552 	0.000082
1.167647 	0.000081
1.167741 	0.00008
1.167836 	0.000079
1.167931 	0.000078
1.168025 	0.000077
1.16812	 0.000076
1.168215 	0.000075
1.16831	 0.000074
1.168405 	0.000073
1.168499 	0.000072
1.168594 	0.000071
1.168689 	0.00007
1.168784 	0.000069
1.168879 	0.000068
1.168973 	0.000067
1.169068 	0.000066
1.169163 	0.000065
1.169258 	0.000064
1.169353 	0.000063
1.169448 	0.000062
1.169542 	0.000061
1.169637 	0.00006
1.169732 	0.000059
1.169827 	0.000058
1.169922 	0.000057
1.170017 	0.000056
1.170112 	0.000055
1.170207 	0.000054
1.170302 	0.000053
1.170397 	0.000053
1.170492 	0.000054
1.170587 	0.000054
1.170681 	0.000055
1.170776 	0.000055
1.170871 	0.000056
1.170966 	0.000056
1.171061 	0.000057
1.171156 	0.000057
1.171251 	0.000058
1.171346 	0.000058
1.171441 	0.000059
1.171537 	0.000059
1.171632 	0.00006
1.171727 	0.00006
1.171822 	0.000061
1.171917 	0.000061
1.172012 	0.000062
1.172107 	0.000062
1.172202 	0.000063
1.172297 	0.000063
1.172392 	0.000064
1.172487 	0.000064
1.172582 	0.000065
1.172677 	0.000065
1.172773 	0.000066
1.172868 	0.000066
1.172963 	0.000067
1.173058 	0.000067
1.173153 	0.000068
1.173248 	0.000068
1.173344 	0.000069
1.173439 	0.000069
1.173534 	0.00007
1.173629 	0.00007
1.173724 	0.000071
1.17382	 0.000071
1.173915 	0.000072
1.17401	 0.000072
1.174105 	0.000073
1.1742	 0.000073
1.174296 	0.000074
1.174391 	0.000075
1.174486 	0.000075
1.174582 	0.000076
1.174677 	0.000076
1.174772 	0.000077
1.174867 	0.000077
1.174963 	0.000078
1.175058 	0.000078
1.175153 	0.000079
1.175249 	0.000079
1.175344 	0.00008
1.175439 	0.00008
1.175535 	0.000081
1.17563	 0.000081
1.175725 	0.000082
1.175821 	0.000082
1.175916 	0.000083
1.176012 	0.000083
1.176107 	0.000084
1.176202 	0.000084
1.176298 	0.000085
1.176393 	0.000085
1.176489 	0.000086
1.176584 	0.000086
1.17668	 0.000087
1.176775 	0.000087
1.176871 	0.000088
1.176966 	0.000088
1.177061 	0.000089
1.177157 	0.000089
1.177252 	0.00009
1.177348 	0.00009
1.177443 	0.000091
1.177539 	0.000091
1.177634 	0.000092
1.17773	 0.000092
1.177826 	0.000093
1.177921 	0.000093
1.178017 	0.000094
1.178112 	0.000094
1.178208 	0.000095
1.178303 	0.000095
1.178399 	0.000096
1.178495 	0.000096
1.17859	 0.000097
1.178686 	0.000097
1.178781 	0.000098
1.178877 	0.000099
1.178973 	0.000099
1.179068 	0.0001
1.179164 	0.0001
1.17926	 0.000101
1.179355 	0.000101
1.179451 	0.000102
1.179547 	0.000102
1.179642 	0.000103
1.179738 	0.000103
1.179834 	0.000104
1.179929 	0.000104
1.180025 	0.000105
1.180121 	0.000105
1.180217 	0.000106
1.180312 	0.000106
1.180408 	0.000106
1.180504 	0.000106
1.1806	 0.000106
1.180695 	0.000106
1.180791 	0.000106
1.180887 	0.000106
1.180983 	0.000106
1.181079 	0.000106
1.181174 	0.000106
1.18127	 0.000106
1.181366 	0.000106
1.181462 	0.000106
1.181558 	0.000106
1.181654 	0.000106
1.181749 	0.000106
1.181845 	0.000106
1.181941 	0.000106
1.182037 	0.000106
1.182133 	0.000106
1.182229 	0.000106
1.182325 	0.000106
1.182421 	0.000106
1.182517 	0.000106
1.182612 	0.000106
1.182708 	0.000106
1.182804 	0.000106
1.1829	 0.000106
1.182996 	0.000106
1.183092 	0.000106
1.183188 	0.000106
1.183284 	0.000106
1.18338	 0.000106
1.183476 	0.000106
1.183572 	0.000106
1.183668 	0.000106
1.183764 	0.000106
1.18386	 0.000106
1.183956 	0.000106
1.184052 	0.000106
1.184148 	0.000106
1.184244 	0.000106
1.184341 	0.000106
1.184437 	0.000106
1.184533 	0.000106
1.184629 	0.000106
1.184725 	0.000106
1.184821 	0.000107
1.184917 	0.000107
1.185013 	0.000107
1.185109 	0.000107
1.185205 	0.000107
1.185302 	0.000107
1.185398 	0.000108
1.185494 	0.00011
1.18559	 0.000112
1.185686 	0.000114
1.185783 	0.000116
1.185879 	0.000118
1.185975 	0.000121
1.186071 	0.000123
1.186167 	0.000125
1.186264 	0.000127
1.18636	 0.000129
1.186456 	0.000131
1.186552 	0.000133
1.186649 	0.000135
1.186745 	0.000137
1.186841 	0.000139
1.186937 	0.000141
1.187034 	0.000143
1.18713	 0.000145
1.187226 	0.000147
1.187323 	0.000149
1.187419 	0.000151
1.187515 	0.000153
1.187612 	0.000155
1.187708 	0.000158
1.187804 	0.00016
1.187901 	0.000162
1.187997 	0.000164
1.188093 	0.000166
1.18819	 0.000168
1.188286 	0.00017
1.188382 	0.000172
1.188479 	0.000174
1.188575 	0.000176
1.188672 	0.000178
1.188768 	0.00018
1.188865 	0.000182
1.188961 	0.000184
1.189057 	0.000186
1.189154 	0.000189
1.18925	 0.000191
1.189347 	0.000193
1.189443 	0.000195
1.18954	 0.000197
1.189636 	0.000199
1.189733 	0.000201
1.189829 	0.000203
1.189926 	0.000205
1.190022 	0.000207
1.190119 	0.000209
1.190216 	0.000211
1.190312 	0.000213
1.190409 	0.000214
1.190505 	0.000214
1.190602 	0.000214
1.190698 	0.000214
1.190795 	0.000214
1.190892 	0.000214
1.190988 	0.000214
1.191085 	0.000214
1.191181 	0.000214
1.191278 	0.000214
1.191375 	0.000214
1.191471 	0.000214
1.191568 	0.000214
1.191665 	0.000214
1.191761 	0.000214
1.191858 	0.000214
1.191955 	0.000214
1.192051 	0.000214
1.192148 	0.000214
1.192245 	0.000214
1.192342 	0.000214
1.192438 	0.000214
1.192535 	0.000214
1.192632 	0.000214
1.192728 	0.000214
1.192825 	0.000214
1.192922 	0.000214
1.193019 	0.000214
1.193116 	0.000214
1.193212 	0.000214
1.193309 	0.000214
1.193406 	0.000214
1.193503 	0.000214
1.1936	 0.000214
1.193696 	0.000214
1.193793 	0.000214
1.19389	 0.000214
1.193987 	0.000214
1.194084 	0.000214
1.194181 	0.000214
1.194277 	0.000214
1.194374 	0.000214
1.194471 	0.000214
1.194568 	0.000214
1.194665 	0.000214
1.194762 	0.000214
1.194859 	0.000214
1.194956 	0.000214
1.195053 	0.000214
1.19515	 0.000214
1.195247 	0.000214
1.195344 	0.000214
1.195441 	0.000213
1.195538 	0.000212
1.195635 	0.000211
1.195732 	0.00021
1.195829 	0.000209
1.195926 	0.000208
1.196023 	0.000207
1.19612	 0.000206
1.196217 	0.000205
1.196314 	0.000204
1.196411 	0.000203
1.196508 	0.000202
1.196605 	0.0002
1.196702 	0.000199
1.196799 	0.000198
1.196896 	0.000197
1.196993 	0.000196
1.19709	 0.000195
1.197187 	0.000194
1.197284 	0.000193
1.197382 	0.000192
1.197479 	0.000191
1.197576 	0.00019
1.197673 	0.000189
1.19777	 0.000188
1.197867 	0.000187
1.197965 	0.000186
1.198062 	0.000185
1.198159 	0.000184
1.198256 	0.000183
1.198353 	0.000182
1.198451 	0.000181
1.198548 	0.00018
1.198645 	0.000179
1.198742 	0.000178
1.198839 	0.000177
1.198937 	0.000176
1.199034 	0.000175
1.199131 	0.000174
1.199229 	0.000173
1.199326 	0.000172
1.199423 	0.000171
1.19952	 0.00017
1.199618 	0.000169
1.199715 	0.000167
1.199812 	0.000166
1.19991	 0.000165
1.200007 	0.000164
1.200104 	0.000163
1.200202 	0.000162
1.200299 	0.000161
1.200396 	0.000162
1.200494 	0.000165
1.200591 	0.000167
1.200689 	0.000169
1.200786 	0.000171
1.200883 	0.000173
1.200981 	0.000175
1.201078 	0.000177
1.201176 	0.000179
1.201273 	0.000181
1.201371 	0.000183
1.201468 	0.000185
1.201566 	0.000188
1.201663 	0.00019
1.20176	 0.000192
1.201858 	0.000194
1.201955 	0.000196
1.202053 	0.000198
1.20215	 0.0002
1.202248 	0.000202
1.202346 	0.000204
1.202443 	0.000207
1.202541 	0.000209
1.202638 	0.000211
1.202736 	0.000213
1.202833 	0.000215
1.202931 	0.000217
1.203029 	0.000219
1.203126 	0.000221
1.203224 	0.000223
1.203321 	0.000226
1.203419 	0.000228
1.203517 	0.00023
1.203614 	0.000232
1.203712 	0.000234
1.203809 	0.000236
1.203907 	0.000238
1.204005 	0.00024
1.204102 	0.000242
1.2042	 0.000245
1.204298 	0.000247
1.204396 	0.000249
1.204493 	0.000251
1.204591 	0.000253
1.204689 	0.000255
1.204786 	0.000257
1.204884 	0.000259
1.204982 	0.000261
1.20508	 0.000264
1.205177 	0.000266
1.205275 	0.000268
1.205373 	0.000269
1.205471 	0.000269
1.205568 	0.00027
1.205666 	0.00027
1.205764 	0.000271
1.205862 	0.000271
1.20596	 0.000271
1.206058 	0.000272
1.206155 	0.000272
1.206253 	0.000272
1.206351 	0.000273
1.206449 	0.000273
1.206547 	0.000274
1.206645 	0.000274
1.206743 	0.000274
1.20684	 0.000275
1.206938 	0.000275
1.207036 	0.000275
1.207134 	0.000276
1.207232 	0.000276
1.20733	 0.000277
1.207428 	0.000277
1.207526 	0.000277
1.207624 	0.000278
1.207722 	0.000278
1.20782	 0.000278
1.207918 	0.000279
1.208016 	0.000279
1.208114 	0.000279
1.208212 	0.00028
1.20831	 0.00028
1.208408 	0.000281
1.208506 	0.000281
1.208604 	0.000281
1.208702 	0.000282
1.2088	 0.000282
1.208898 	0.000282
1.208996 	0.000283
1.209094 	0.000283
1.209192 	0.000283
1.20929	 0.000284
1.209388 	0.000284
1.209487 	0.000285
1.209585 	0.000285
1.209683 	0.000285
1.209781 	0.000286
1.209879 	0.000286
1.209977 	0.000286
1.210075 	0.000287
1.210174 	0.000287
1.210272 	0.000288
1.21037	 0.000288
1.210468 	0.000288
1.210566 	0.000289
1.210665 	0.000289
1.210763 	0.000289
1.210861 	0.00029
1.210959 	0.00029
1.211057 	0.000291
1.211156 	0.000291
1.211254 	0.000291
1.211352 	0.000292
1.21145	 0.000292
1.211549 	0.000292
1.211647 	0.000293
1.211745 	0.000293
1.211844 	0.000294
1.211942 	0.000294
1.21204	 0.000294
1.212139 	0.000295
1.212237 	0.000295
1.212335 	0.000295
1.212434 	0.000296
1.212532 	0.000296
1.21263	 0.000296
1.212729 	0.000297
1.212827 	0.000297
1.212925 	0.000298
1.213024 	0.000298
1.213122 	0.000298
1.213221 	0.000299
1.213319 	0.000299
1.213417 	0.000299
1.213516 	0.0003
1.213614 	0.0003
1.213713 	0.000301
1.213811 	0.000301
1.21391	 0.000301
1.214008 	0.000302
1.214107 	0.000302
1.214205 	0.000302
1.214304 	0.000303
1.214402 	0.000303
1.214501 	0.000304
1.214599 	0.000304
1.214698 	0.000304
1.214796 	0.000305
1.214895 	0.000305
1.214993 	0.000306
1.215092 	0.000306
1.215191 	0.000306
1.215289 	0.000307
1.215388 	0.000307
1.215486 	0.000307
1.215585 	0.000308
1.215683 	0.000308
1.215782 	0.000309
1.215881 	0.000309
1.215979 	0.000309
1.216078 	0.00031
1.216177 	0.00031
1.216275 	0.00031
1.216374 	0.000311
1.216473 	0.000311
1.216571 	0.000311
1.21667	 0.000312
1.216769 	0.000312
1.216867 	0.000313
1.216966 	0.000313
1.217065 	0.000313
1.217164 	0.000314
1.217262 	0.000314
1.217361 	0.000314
1.21746	 0.000315
1.217559 	0.000315
1.217657 	0.000316
1.217756 	0.000316
1.217855 	0.000316
1.217954 	0.000317
1.218053 	0.000317
1.218151 	0.000317
1.21825	 0.000318
1.218349 	0.000318
1.218448 	0.000319
1.218547 	0.000319
1.218646 	0.000319
1.218744 	0.00032
1.218843 	0.00032
1.218942 	0.000321
1.219041 	0.000321
1.21914	 0.000321
1.219239 	0.000322
1.219338 	0.000322
1.219437 	0.000322
1.219536 	0.000323
1.219635 	0.000323
1.219733 	0.000324
1.219832 	0.000324
1.219931 	0.000324
1.22003	 0.000325
1.220129 	0.000325
1.220228 	0.000325
1.220327 	0.000326
1.220426 	0.000324
1.220525 	0.000322
1.220624 	0.00032
1.220723 	0.000317
1.220822 	0.000315
1.220921 	0.000313
1.22102	 0.000311
1.221119 	0.000309
1.221219 	0.000307
1.221318 	0.000305
1.221417 	0.000302
1.221516 	0.0003
1.221615 	0.000298
1.221714 	0.000296
1.221813 	0.000294
1.221912 	0.000292
1.222011 	0.00029
1.22211	 0.000288
1.22221	 0.000285
1.222309 	0.000283
1.222408 	0.000281
1.222507 	0.000279
1.222606 	0.000277
1.222705 	0.000275
1.222805 	0.000273
1.222904 	0.00027
1.223003 	0.000268
1.223102 	0.000266
1.223201 	0.000264
1.223301 	0.000262
1.2234	 0.00026
1.223499 	0.000258
1.223598 	0.000255
1.223698 	0.000253
1.223797 	0.000251
1.223896 	0.000249
1.223996 	0.000247
1.224095 	0.000245
1.224194 	0.000242
1.224293 	0.00024
1.224393 	0.000238
1.224492 	0.000236
1.224591 	0.000234
1.224691 	0.000232
1.22479	 0.00023
1.224889 	0.000227
1.224989 	0.000225
1.225088 	0.000223
1.225188 	0.000221
1.225287 	0.000219
1.225386 	0.000217
1.225486 	0.000216
1.225585 	0.000215
1.225685 	0.000214
1.225784 	0.000213
1.225883 	0.000212
1.225983 	0.000211
1.226082 	0.00021
1.226182 	0.000209
1.226281 	0.000208
1.226381 	0.000207
1.22648	 0.000206
1.22658	 0.000204
1.226679 	0.000203
1.226779 	0.000202
1.226878 	0.000201
1.226978 	0.0002
1.227077 	0.000199
1.227177 	0.000198
1.227276 	0.000197
1.227376 	0.000196
1.227476 	0.000195
1.227575 	0.000194
1.227675 	0.000193
1.227774 	0.000191
1.227874 	0.00019
1.227974 	0.000189
1.228073 	0.000188
1.228173 	0.000187
1.228272 	0.000186
1.228372 	0.000185
1.228472 	0.000184
1.228571 	0.000183
1.228671 	0.000182
1.228771 	0.000181
1.22887	 0.00018
1.22897	 0.000179
1.22907	 0.000177
1.229169 	0.000176
1.229269 	0.000175
1.229369 	0.000174
1.229469 	0.000173
1.229568 	0.000172
1.229668 	0.000171
1.229768 	0.00017
1.229868 	0.000169
1.229967 	0.000168
1.230067 	0.000167
1.230167 	0.000166
1.230267 	0.000165
1.230367 	0.000163
1.230466 	0.000162
1.230566 	0.000161
1.230666 	0.00016
1.230766 	0.000159
1.230866 	0.000158
1.230966 	0.000157
1.231065 	0.000156
1.231165 	0.000155
1.231265 	0.000154
1.231365 	0.000153
1.231465 	0.000152
1.231565 	0.00015
1.231665 	0.000149
1.231765 	0.000148
1.231865 	0.000147
1.231964 	0.000146
1.232064 	0.000145
1.232164 	0.000144
1.232264 	0.000143
1.232364 	0.000142
1.232464 	0.000141
1.232564 	0.00014
1.232664 	0.000138
1.232764 	0.000137
1.232864 	0.000136
1.232964 	0.000135
1.233064 	0.000134
1.233164 	0.000133
1.233264 	0.000132
1.233364 	0.000131
1.233464 	0.00013
1.233564 	0.000129
1.233665 	0.000128
1.233765 	0.000127
1.233865 	0.000126
1.233965 	0.000124
1.234065 	0.000123
1.234165 	0.000122
1.234265 	0.000121
1.234365 	0.00012
1.234465 	0.000119
1.234566 	0.000118
1.234666 	0.000117
1.234766 	0.000116
1.234866 	0.000115
1.234966 	0.000114
1.235066 	0.000112
1.235167 	0.000111
1.235267 	0.00011
1.235367 	0.000109
1.235467 	0.000108
1.235567 	0.000107
1.235668 	0.000106
1.235768 	0.000105
1.235868 	0.000104
1.235968 	0.000103
1.236069 	0.000101
1.236169 	0.0001
1.236269 	0.000099
1.23637	 0.000098
1.23647	 0.000097
1.23657	 0.000096
1.23667	 0.000095
1.236771 	0.000094
1.236871 	0.000093
1.236971 	0.000092
1.237072 	0.000091
1.237172 	0.000089
1.237272 	0.000088
1.237373 	0.000087
1.237473 	0.000086
1.237574 	0.000085
1.237674 	0.000084
1.237774 	0.000083
1.237875 	0.000082
1.237975 	0.000081
1.238076 	0.00008
1.238176 	0.000079
1.238277 	0.000077
1.238377 	0.000076
1.238477 	0.000075
1.238578 	0.000074
1.238678 	0.000073
1.238779 	0.000072
1.238879 	0.000071
1.23898	 0.00007
1.23908	 0.000069
1.239181 	0.000068
1.239281 	0.000066
1.239382 	0.000065
1.239483 	0.000064
1.239583 	0.000063
1.239684 	0.000062
1.239784 	0.000061
1.239885 	0.00006
1.239985 	0.000059
1.240086 	0.000058
1.240187 	0.000057
1.240287 	0.000055
1.240388 	0.000055
1.240488 	0.000055
1.240589 	0.000055
1.24069	 0.000055
1.24079	 0.000055
1.240891 	0.000055
1.240992 	0.000055
1.241092 	0.000055
1.241193 	0.000055
1.241294 	0.000055
1.241394 	0.000055
1.241495 	0.000055
1.241596 	0.000055
1.241696 	0.000055
1.241797 	0.000055
1.241898 	0.000055
1.241999 	0.000055
1.2421	 0.000055
1.2422	 0.000055
1.242301 	0.000055
1.242402 	0.000055
1.242503 	0.000055
1.242603 	0.000055
1.242704 	0.000055
1.242805 	0.000055
1.242906 	0.000055
1.243007 	0.000055
1.243108 	0.000055
1.243208 	0.000055
1.243309 	0.000055
1.24341	 0.000055
1.243511 	0.000055
1.243612 	0.000055
1.243713 	0.000055
1.243814 	0.000055
1.243914 	0.000055
1.244015 	0.000055
1.244116 	0.000055
1.244217 	0.000055
1.244318 	0.000055
1.244419 	0.000055
1.24452	 0.000055
1.244621 	0.000055
1.244722 	0.000055
1.244823 	0.000055
1.244924 	0.000055
1.245025 	0.000055
1.245126 	0.000055
1.245227 	0.000055
1.245328 	0.000055
1.245429 	0.000058
1.24553	 0.000061
1.245631 	0.000065
1.245732 	0.000068
1.245833 	0.000071
1.245934 	0.000075
1.246035 	0.000078
1.246136 	0.000081
1.246237 	0.000085
1.246339 	0.000088
1.24644	 0.000091
1.246541 	0.000095
1.246642 	0.000098
1.246743 	0.000101
1.246844 	0.000105
1.246945 	0.000108
1.247046 	0.000111
1.247148 	0.000115
1.247249 	0.000118
1.24735	 0.000121
1.247451 	0.000125
1.247552 	0.000128
1.247654 	0.000132
1.247755 	0.000135
1.247856 	0.000138
1.247957 	0.000142
1.248058 	0.000145
1.24816	 0.000148
1.248261 	0.000152
1.248362 	0.000155
1.248463 	0.000158
1.248565 	0.000162
1.248666 	0.000165
1.248767 	0.000168
1.248869 	0.000172
1.24897	 0.000175
1.249071 	0.000178
1.249173 	0.000182
1.249274 	0.000185
1.249375 	0.000189
1.249477 	0.000192
1.249578 	0.000195
1.249679 	0.000199
1.249781 	0.000202
1.249882 	0.000206
1.249983 	0.000209
1.250085 	0.000212
1.250186 	0.000216
1.250288 	0.000219
1.250389 	0.00022
1.250491 	0.000219
1.250592 	0.000218
1.250694 	0.000217
1.250795 	0.000216
1.250896 	0.000215
1.250998 	0.000214
1.251099 	0.000212
1.251201 	0.000211
1.251302 	0.00021
1.251404 	0.000209
1.251505 	0.000208
1.251607 	0.000207
1.251708 	0.000206
1.25181	 0.000205
1.251912 	0.000204
1.252013 	0.000202
1.252115 	0.000201
1.252216 	0.0002
1.252318 	0.000199
1.252419 	0.000198
1.252521 	0.000197
1.252623 	0.000196
1.252724 	0.000195
1.252826 	0.000193
1.252928 	0.000192
1.253029 	0.000191
1.253131 	0.00019
1.253233 	0.000189
1.253334 	0.000188
1.253436 	0.000187
1.253537 	0.000186
1.253639 	0.000185
1.253741 	0.000184
1.253843 	0.000182
1.253944 	0.000181
1.254046 	0.00018
1.254148 	0.000179
1.25425	 0.000178
1.254351 	0.000177
1.254453 	0.000176
1.254555 	0.000175
1.254657 	0.000173
1.254758 	0.000172
1.25486	 0.000171
1.254962 	0.00017
1.255064 	0.000169
1.255166 	0.000168
1.255267 	0.000167
1.255369 	0.000167
1.255471 	0.00017
1.255573 	0.000174
1.255675 	0.000177
1.255777 	0.00018
1.255878 	0.000184
1.25598	 0.000187
1.256082 	0.00019
1.256184 	0.000194
1.256286 	0.000197
1.256388 	0.000201
1.25649	 0.000204
1.256592 	0.000207
1.256694 	0.000211
1.256796 	0.000214
1.256898 	0.000218
1.257	 0.000221
1.257102 	0.000224
1.257204 	0.000228
1.257306 	0.000231
1.257408 	0.000235
1.25751	 0.000238
1.257612 	0.000241
1.257714 	0.000245
1.257816 	0.000248
1.257918 	0.000252
1.25802	 0.000255
1.258122 	0.000258
1.258224 	0.000262
1.258326 	0.000265
1.258428 	0.000269
1.25853	 0.000272
1.258632 	0.000275
1.258734 	0.000279
1.258836 	0.000282
1.258938 	0.000286
1.259041 	0.000289
1.259143 	0.000292
1.259245 	0.000296
1.259347 	0.000299
1.259449 	0.000303
1.259551 	0.000306
1.259654 	0.000309
1.259756 	0.000313
1.259858 	0.000316
1.25996	 0.00032
1.260062 	0.000323
1.260165 	0.000326
1.260267 	0.00033
1.260369 	0.000331
1.260471 	0.000326
1.260574 	0.00032
1.260676 	0.000314
1.260778 	0.000309
1.26088	 0.000303
1.260983 	0.000297
1.261085 	0.000292
1.261187 	0.000286
1.26129	 0.00028
1.261392 	0.000275
1.261494 	0.000269
1.261596 	0.000263
1.261699 	0.000258
1.261801 	0.000252
1.261904 	0.000246
1.262006 	0.000241
1.262108 	0.000235
1.262211 	0.000229
1.262313 	0.000224
1.262415 	0.000218
1.262518 	0.000212
1.26262	 0.000207
1.262723 	0.000201
1.262825 	0.000195
1.262928 	0.00019
1.26303	 0.000184
1.263133 	0.000178
1.263235 	0.000173
1.263337 	0.000167
1.26344	 0.000161
1.263542 	0.000155
1.263645 	0.00015
1.263747 	0.000144
1.26385	 0.000138
1.263953 	0.000133
1.264055 	0.000127
1.264158 	0.000121
1.26426	 0.000116
1.264363 	0.00011
1.264465 	0.000104
1.264568 	0.000099
1.26467	 0.000093
1.264773 	0.000087
1.264876 	0.000082
1.264978 	0.000076
1.265081 	0.00007
1.265183 	0.000065
1.265286 	0.000059
1.265389 	0.000056
1.265491 	0.000057
1.265594 	0.000058
1.265697 	0.000059
1.265799 	0.000061
1.265902 	0.000062
1.266005 	0.000063
1.266108 	0.000064
1.26621	 0.000065
1.266313 	0.000066
1.266416 	0.000067
1.266518 	0.000069
1.266621 	0.00007
1.266724 	0.000071
1.266827 	0.000072
1.266929 	0.000073
1.267032 	0.000074
1.267135 	0.000075
1.267238 	0.000077
1.267341 	0.000078
1.267443 	0.000079
1.267546 	0.00008
1.267649 	0.000081
1.267752 	0.000082
1.267855 	0.000083
1.267958 	0.000085
1.26806	 0.000086
1.268163 	0.000087
1.268266 	0.000088
1.268369 	0.000089
1.268472 	0.00009
1.268575 	0.000091
1.268678 	0.000093
1.268781 	0.000094
1.268884 	0.000095
1.268987 	0.000096
1.269089 	0.000097
1.269192 	0.000098
1.269295 	0.0001
1.269398 	0.000101
1.269501 	0.000102
1.269604 	0.000103
1.269707 	0.000104
1.26981	 0.000105
1.269913 	0.000106
1.270016 	0.000108
1.270119 	0.000109
1.270222 	0.00011
1.270325 	0.000111
1.270429 	0.000112
1.270532 	0.000113
1.270635 	0.000114
1.270738 	0.000116
1.270841 	0.000117
1.270944 	0.000118
1.271047 	0.000119
1.27115	 0.00012
1.271253 	0.000121
1.271356 	0.000122
1.271459 	0.000124
1.271563 	0.000125
1.271666 	0.000126
1.271769 	0.000127
1.271872 	0.000128
1.271975 	0.000129
1.272078 	0.000131
1.272182 	0.000132
1.272285 	0.000133
1.272388 	0.000134
1.272491 	0.000135
1.272595 	0.000136
1.272698 	0.000138
1.272801 	0.000139
1.272904 	0.00014
1.273008 	0.000141
1.273111 	0.000142
1.273214 	0.000143
1.273317 	0.000144
1.273421 	0.000146
1.273524 	0.000147
1.273627 	0.000148
1.273731 	0.000149
1.273834 	0.00015
1.273937 	0.000151
1.274041 	0.000153
1.274144 	0.000154
1.274247 	0.000155
1.274351 	0.000156
1.274454 	0.000157
1.274557 	0.000158
1.274661 	0.000159
1.274764 	0.000161
1.274868 	0.000162
1.274971 	0.000163
1.275075 	0.000164
1.275178 	0.000165
1.275281 	0.000166
1.275385 	0.000168
1.275488 	0.000169
1.275592 	0.00017
1.275695 	0.000171
1.275799 	0.000172
1.275902 	0.000173
1.276006 	0.000174
1.276109 	0.000176
1.276213 	0.000177
1.276316 	0.000178
1.27642	 0.000179
1.276523 	0.00018
1.276627 	0.000181
1.27673	 0.000183
1.276834 	0.000184
1.276938 	0.000185
1.277041 	0.000186
1.277145 	0.000187
1.277248 	0.000188
1.277352 	0.00019
1.277456 	0.000191
1.277559 	0.000192
1.277663 	0.000193
1.277767 	0.000194
1.27787	 0.000195
1.277974 	0.000197
1.278078 	0.000198
1.278181 	0.000199
1.278285 	0.0002
1.278389 	0.000201
1.278492 	0.000202
1.278596 	0.000204
1.2787	 0.000205
1.278804 	0.000206
1.278907 	0.000207
1.279011 	0.000208
1.279115 	0.000209
1.279219 	0.000211
1.279322 	0.000212
1.279426 	0.000213
1.27953	 0.000214
1.279634 	0.000215
1.279737 	0.000216
1.279841 	0.000218
1.279945 	0.000219
1.280049 	0.00022
1.280153 	0.000221
1.280257 	0.000222
1.28036	 0.000223
1.280464 	0.000222
1.280568 	0.000221
1.280672 	0.00022
1.280776 	0.000218
1.28088	 0.000217
1.280984 	0.000216
1.281088 	0.000215
1.281192 	0.000214
1.281296 	0.000213
1.2814	 0.000212
1.281504 	0.00021
1.281607 	0.000209
1.281711 	0.000208
1.281815 	0.000207
1.281919 	0.000206
1.282023 	0.000205
1.282127 	0.000204
1.282231 	0.000202
1.282335 	0.000201
1.282439 	0.0002
1.282543 	0.000199
1.282647 	0.000198
1.282752 	0.000197
1.282856 	0.000195
1.28296	 0.000194
1.283064 	0.000193
1.283168 	0.000192
1.283272 	0.000191
1.283376 	0.00019
1.28348	 0.000188
1.283584 	0.000187
1.283688 	0.000186
1.283792 	0.000185
1.283897 	0.000184
1.284001 	0.000183
1.284105 	0.000181
1.284209 	0.00018
1.284313 	0.000179
1.284417 	0.000178
1.284522 	0.000177
1.284626 	0.000176
1.28473	 0.000174
1.284834 	0.000173
1.284939 	0.000172
1.285043 	0.000171
1.285147 	0.00017
1.285251 	0.000169
1.285356 	0.000168
1.28546	 0.000168
1.285564 	0.000168
1.285668 	0.000168
1.285773 	0.000168
1.285877 	0.000168
1.285981 	0.000168
1.286086 	0.000168
1.28619	 0.000168
1.286294 	0.000168
1.286399 	0.000168
1.286503 	0.000168
1.286607 	0.000168
1.286712 	0.000168
1.286816 	0.000168
1.286921 	0.000168
1.287025 	0.000168
1.287129 	0.000168
1.287234 	0.000168
1.287338 	0.000168
1.287443 	0.000168
1.287547 	0.000168
1.287651 	0.000168
1.287756 	0.000168
1.28786	 0.000168
1.287965 	0.000168
1.288069 	0.000168
1.288174 	0.000168
1.288278 	0.000168
1.288383 	0.000168
1.288487 	0.000168
1.288592 	0.000168
1.288696 	0.000168
1.288801 	0.000168
1.288906 	0.000168
1.28901	 0.000168
1.289115 	0.000168
1.289219 	0.000168
1.289324 	0.000168
1.289428 	0.000168
1.289533 	0.000168
1.289638 	0.000168
1.289742 	0.000168
1.289847 	0.000168
1.289952 	0.000168
1.290056 	0.000168
1.290161 	0.000168
1.290265 	0.000168
1.29037	 0.000168
1.290475 	0.00017
1.290579 	0.000173
1.290684 	0.000175
1.290789 	0.000177
1.290894 	0.00018
1.290998 	0.000182
1.291103 	0.000185
1.291208 	0.000187
1.291313 	0.000189
1.291417 	0.000192
1.291522 	0.000194
1.291627 	0.000196
1.291732 	0.000199
1.291836 	0.000201
1.291941 	0.000203
1.292046 	0.000206
1.292151 	0.000208
1.292256 	0.00021
1.29236	 0.000213
1.292465 	0.000215
1.29257	 0.000217
1.292675 	0.00022
1.29278	 0.000222
1.292885 	0.000224
1.29299	 0.000227
1.293095 	0.000229
1.293199 	0.000231
1.293304 	0.000234
1.293409 	0.000236
1.293514 	0.000239
1.293619 	0.000241
1.293724 	0.000243
1.293829 	0.000246
1.293934 	0.000248
1.294039 	0.00025
1.294144 	0.000253
1.294249 	0.000255
1.294354 	0.000257
1.294459 	0.00026
1.294564 	0.000262
1.294669 	0.000264
1.294774 	0.000267
1.294879 	0.000269
1.294984 	0.000272
1.295089 	0.000274
1.295194 	0.000276
1.295299 	0.000279
1.295404 	0.000281
1.295509 	0.000283
1.295614 	0.000286
1.29572	 0.000288
1.295825 	0.00029
1.29593	 0.000293
1.296035 	0.000295
1.29614	 0.000297
1.296245 	0.0003
1.29635	 0.000302
1.296456 	0.000304
1.296561 	0.000307
1.296666 	0.000309
1.296771 	0.000311
1.296876 	0.000314
1.296981 	0.000316
1.297087 	0.000319
1.297192 	0.000321
1.297297 	0.000323
1.297402 	0.000326
1.297508 	0.000328
1.297613 	0.00033
1.297718 	0.000333
1.297823 	0.000335
1.297929 	0.000337
1.298034 	0.00034
1.298139 	0.000342
1.298245 	0.000344
1.29835	 0.000347
1.298455 	0.000349
1.298561 	0.000352
1.298666 	0.000354
1.298771 	0.000356
1.298877 	0.000359
1.298982 	0.000361
1.299087 	0.000364
1.299193 	0.000366
1.299298 	0.000368
1.299404 	0.000371
1.299509 	0.000373
1.299614 	0.000375
1.29972	 0.000378
1.299825 	0.00038
1.299931 	0.000382
1.300036 	0.000385
1.300142 	0.000387
1.300247 	0.000389
1.300353 	0.000392
1.300458 	0.000388
1.300564 	0.000385
1.300669 	0.000381
1.300775 	0.000378
1.30088	 0.000374
1.300986 	0.000371
1.301091 	0.000367
1.301197 	0.000364
1.301302 	0.00036
1.301408 	0.000357
1.301513 	0.000353
1.301619 	0.00035
1.301725 	0.000346
1.30183	 0.000343
1.301936 	0.000339
1.302041 	0.000335
1.302147 	0.000332
1.302253 	0.000328
1.302358 	0.000325
1.302464 	0.000321
1.30257	 0.000318
1.302675 	0.000314
1.302781 	0.000311
1.302887 	0.000307
1.302992 	0.000304
1.303098 	0.0003
1.303204 	0.000297
1.303309 	0.000293
1.303415 	0.00029
1.303521 	0.000286
1.303627 	0.000283
1.303732 	0.000279
1.303838 	0.000275
1.303944 	0.000272
1.30405	 0.000268
1.304156 	0.000265
1.304261 	0.000261
1.304367 	0.000258
1.304473 	0.000254
1.304579 	0.000251
1.304685 	0.000247
1.30479	 0.000244
1.304896 	0.00024
1.305002 	0.000236
1.305108 	0.000233
1.305214 	0.000229
1.30532	 0.000226
1.305426 	0.000222
1.305532 	0.000219
1.305638 	0.000215
1.305743 	0.000212
1.305849 	0.000208
1.305955 	0.000204
1.306061 	0.000201
1.306167 	0.000197
1.306273 	0.000194
1.306379 	0.00019
1.306485 	0.000187
1.306591 	0.000183
1.306697 	0.000179
1.306803 	0.000176
1.306909 	0.000172
1.307015 	0.000169
1.307121 	0.000165
1.307227 	0.000162
1.307333 	0.000158
1.307439 	0.000155
1.307545 	0.000151
1.307651 	0.000147
1.307757 	0.000144
1.307863 	0.00014
1.30797	 0.000137
1.308076 	0.000133
1.308182 	0.00013
1.308288 	0.000126
1.308394 	0.000122
1.3085	 0.000119
1.308606 	0.000115
1.308712 	0.000112
1.308819 	0.000108
1.308925 	0.000105
1.309031 	0.000101
1.309137 	0.000097
1.309243 	0.000094
1.30935	 0.00009
1.309456 	0.000087
1.309562 	0.000083
1.309668 	0.00008
1.309775 	0.000076
1.309881 	0.000072
1.309987 	0.000069
1.310093 	0.000065
1.3102	 0.000062
1.310306 	0.000058
1.310412 	0.000057
1.310519 	0.000059
1.310625 	0.000061
1.310731 	0.000063
1.310838 	0.000064
1.310944 	0.000066
1.31105	 0.000068
1.311157 	0.00007
1.311263 	0.000072
1.311369 	0.000073
1.311476 	0.000075
1.311582 	0.000077
1.311688 	0.000079
1.311795 	0.000081
1.311901 	0.000082
1.312008 	0.000084
1.312114 	0.000086
1.312221 	0.000088
1.312327 	0.00009
1.312433 	0.000091
1.31254	 0.000093
1.312646 	0.000095
1.312753 	0.000097
1.312859 	0.000099
1.312966 	0.0001
1.313072 	0.000102
1.313179 	0.000104
1.313285 	0.000106
1.313392 	0.000108
1.313499 	0.000109
1.313605 	0.000111
1.313712 	0.000113
1.313818 	0.000115
1.313925 	0.000117
1.314031 	0.000119
1.314138 	0.00012
1.314245 	0.000122
1.314351 	0.000124
1.314458 	0.000126
1.314564 	0.000128
1.314671 	0.000129
1.314778 	0.000131
1.314884 	0.000133
1.314991 	0.000135
1.315098 	0.000137
1.315204 	0.000138
1.315311 	0.00014
1.315418 	0.000142
1.315525 	0.000144
1.315631 	0.000146
1.315738 	0.000147
1.315845 	0.000149
1.315951 	0.000151
1.316058 	0.000153
1.316165 	0.000155
1.316272 	0.000157
1.316379 	0.000158
1.316485 	0.00016
1.316592 	0.000162
1.316699 	0.000164
1.316806 	0.000166
1.316913 	0.000168
1.317019 	0.000169
1.317126 	0.000171
1.317233 	0.000173
1.31734	 0.000175
1.317447 	0.000177
1.317554 	0.000178
1.317661 	0.00018
1.317767 	0.000182
1.317874 	0.000184
1.317981 	0.000186
1.318088 	0.000188
1.318195 	0.000189
1.318302 	0.000191
1.318409 	0.000193
1.318516 	0.000195
1.318623 	0.000197
1.31873	 0.000198
1.318837 	0.0002
1.318944 	0.000202
1.319051 	0.000204
1.319158 	0.000206
1.319265 	0.000208
1.319372 	0.000209
1.319479 	0.000211
1.319586 	0.000213
1.319693 	0.000215
1.3198	 0.000217
1.319907 	0.000218
1.320014 	0.00022
1.320121 	0.000222
1.320228 	0.000224
1.320335 	0.000226
1.320443 	0.000225
1.32055	 0.000224
1.320657 	0.000223
1.320764 	0.000222
1.320871 	0.00022
1.320978 	0.000219
1.321085 	0.000218
1.321193 	0.000217
1.3213	 0.000216
1.321407 	0.000214
1.321514 	0.000213
1.321621 	0.000212
1.321729 	0.000211
1.321836 	0.00021
1.321943 	0.000208
1.32205	 0.000207
1.322158 	0.000206
1.322265 	0.000205
1.322372 	0.000204
1.322479 	0.000202
1.322587 	0.000201
1.322694 	0.0002
1.322801 	0.000199
1.322908 	0.000198
1.323016 	0.000196
1.323123 	0.000195
1.32323	 0.000194
1.323338 	0.000193
1.323445 	0.000192
1.323553 	0.00019
1.32366	 0.000189
1.323767 	0.000188
1.323875 	0.000187
1.323982 	0.000185
1.324089 	0.000184
1.324197 	0.000183
1.324304 	0.000182
1.324412 	0.000181
1.324519 	0.000179
1.324627 	0.000178
1.324734 	0.000177
1.324842 	0.000176
1.324949 	0.000175
1.325057 	0.000173
1.325164 	0.000172
1.325271 	0.000171
1.325379 	0.00017
1.325487 	0.000168
1.325594 	0.000167
1.325702 	0.000166
1.325809 	0.000165
1.325917 	0.000164
1.326024 	0.000162
1.326132 	0.000161
1.326239 	0.00016
1.326347 	0.000159
1.326455 	0.000158
1.326562 	0.000156
1.32667	 0.000155
1.326777 	0.000154
1.326885 	0.000153
1.326993 	0.000151
1.3271	 0.00015
1.327208 	0.000149
1.327316 	0.000148
1.327423 	0.000147
1.327531 	0.000145
1.327639 	0.000144
1.327746 	0.000143
1.327854 	0.000142
1.327962 	0.000141
1.32807	 0.000139
1.328177 	0.000138
1.328285 	0.000137
1.328393 	0.000136
1.328501 	0.000134
1.328608 	0.000133
1.328716 	0.000132
1.328824 	0.000131
1.328932 	0.00013
1.32904	 0.000128
1.329147 	0.000127
1.329255 	0.000126
1.329363 	0.000125
1.329471 	0.000124
1.329579 	0.000122
1.329687 	0.000121
1.329794 	0.00012
1.329902 	0.000119
1.33001	 0.000117
1.330118 	0.000116
1.330226 	0.000115
1.330334 	0.000114
1.330442 	0.000113
1.33055	 0.000113
1.330658 	0.000113
1.330766 	0.000113
1.330874 	0.000113
1.330982 	0.000113
1.331089 	0.000113
1.331197 	0.000113
1.331305 	0.000113
1.331413 	0.000113
1.331521 	0.000113
1.331629 	0.000113
1.331737 	0.000113
1.331846 	0.000113
1.331954 	0.000113
1.332062 	0.000113
1.33217	 0.000113
1.332278 	0.000113
1.332386 	0.000113
1.332494 	0.000113
1.332602 	0.000113
1.33271	 0.000113
1.332818 	0.000113
1.332926 	0.000114
1.333034 	0.000114
1.333143 	0.000114
1.333251 	0.000114
1.333359 	0.000114
1.333467 	0.000114
1.333575 	0.000114
1.333683 	0.000114
1.333792 	0.000114
1.3339	 0.000114
1.334008 	0.000114
1.334116 	0.000114
1.334225 	0.000114
1.334333 	0.000114
1.334441 	0.000114
1.334549 	0.000114
1.334658 	0.000114
1.334766 	0.000114
1.334874 	0.000114
1.334982 	0.000114
1.335091 	0.000114
1.335199 	0.000114
1.335307 	0.000114
1.335416 	0.000114
1.335524 	0.000115
1.335632 	0.000117
1.335741 	0.000118
1.335849 	0.000119
1.335957 	0.00012
1.336066 	0.000122
1.336174 	0.000123
1.336283 	0.000124
1.336391 	0.000125
1.336499 	0.000126
1.336608 	0.000128
1.336716 	0.000129
1.336825 	0.00013
1.336933 	0.000131
1.337042 	0.000133
1.33715	 0.000134
1.337258 	0.000135
1.337367 	0.000136
1.337475 	0.000138
1.337584 	0.000139
1.337692 	0.00014
1.337801 	0.000141
1.337909 	0.000142
1.338018 	0.000144
1.338127 	0.000145
1.338235 	0.000146
1.338344 	0.000147
1.338452 	0.000149
1.338561 	0.00015
1.338669 	0.000151
1.338778 	0.000152
1.338887 	0.000154
1.338995 	0.000155
1.339104 	0.000156
1.339212 	0.000157
1.339321 	0.000159
1.33943	 0.00016
1.339538 	0.000161
1.339647 	0.000162
1.339756 	0.000164
1.339864 	0.000165
1.339973 	0.000166
1.340082 	0.000167
1.340191 	0.000169
1.340299 	0.00017
1.340408 	0.000171
1.340517 	0.000172
1.340625 	0.000173
1.340734 	0.000175
1.340843 	0.000176
1.340952 	0.000177
1.341061 	0.000178
1.341169 	0.00018
1.341278 	0.000181
1.341387 	0.000182
1.341496 	0.000183
1.341605 	0.000184
1.341713 	0.000186
1.341822 	0.000187
1.341931 	0.000188
1.34204	 0.000189
1.342149 	0.000191
1.342258 	0.000192
1.342367 	0.000193
1.342475 	0.000194
1.342584 	0.000196
1.342693 	0.000197
1.342802 	0.000198
1.342911 	0.000199
1.34302	 0.0002
1.343129 	0.000202
1.343238 	0.000203
1.343347 	0.000204
1.343456 	0.000205
1.343565 	0.000207
1.343674 	0.000208
1.343783 	0.000209
1.343892 	0.00021
1.344001 	0.000211
1.34411	 0.000213
1.344219 	0.000214
1.344328 	0.000215
1.344437 	0.000216
1.344546 	0.000218
1.344655 	0.000219
1.344764 	0.00022
1.344873 	0.000221
1.344983 	0.000223
1.345092 	0.000224
1.345201 	0.000225
1.34531	 0.000226
1.345419 	0.000228
1.345528 	0.000229
1.345637 	0.00023
1.345746 	0.000231
1.345856 	0.000233
1.345965 	0.000234
1.346074 	0.000235
1.346183 	0.000236
1.346292 	0.000237
1.346402 	0.000239
1.346511 	0.00024
1.34662	 0.000241
1.346729 	0.000242
1.346839 	0.000244
1.346948 	0.000245
1.347057 	0.000246
1.347166 	0.000247
1.347276 	0.000248
1.347385 	0.00025
1.347494 	0.000251
1.347604 	0.000252
1.347713 	0.000253
1.347822 	0.000255
1.347932 	0.000256
1.348041 	0.000257
1.34815	 0.000258
1.34826	 0.00026
1.348369 	0.000261
1.348478 	0.000262
1.348588 	0.000263
1.348697 	0.000264
1.348807 	0.000266
1.348916 	0.000267
1.349025 	0.000268
1.349135 	0.000269
1.349244 	0.000271
1.349354 	0.000272
1.349463 	0.000273
1.349573 	0.000274
1.349682 	0.000275
1.349792 	0.000277
1.349901 	0.000278
1.350011 	0.000279
1.35012	 0.00028
1.35023	 0.000282
1.350339 	0.000283
1.350449 	0.00028
1.350558 	0.000275
1.350668 	0.00027
1.350778 	0.000265
1.350887 	0.00026
1.350997 	0.000255
1.351106 	0.00025
1.351216 	0.000245
1.351325 	0.00024
1.351435 	0.000235
1.351545 	0.00023
1.351654 	0.000225
1.351764 	0.00022
1.351874 	0.000215
1.351983 	0.00021
1.352093 	0.000205
1.352203 	0.0002
1.352312 	0.000195
1.352422 	0.00019
1.352532 	0.000185
1.352642 	0.00018
1.352751 	0.000175
1.352861 	0.00017
1.352971 	0.000165
1.35308	 0.00016
1.35319	 0.000155
1.3533	 0.00015
1.35341	 0.000145
1.35352	 0.00014
1.353629 	0.000135
1.353739 	0.00013
1.353849 	0.000125
1.353959 	0.00012
1.354069 	0.000115
1.354179 	0.00011
1.354288 	0.000106
1.354398 	0.000101
1.354508 	0.000096
1.354618 	0.000091
1.354728 	0.000086
1.354838 	0.000081
1.354948 	0.000076
1.355058 	0.000071
1.355168 	0.000066
1.355278 	0.000061
1.355387 	0.000057
1.355497 	0.000057
1.355607 	0.000057
1.355717 	0.000057
1.355827 	0.000057
1.355937 	0.000057
1.356047 	0.000057
1.356157 	0.000057
1.356267 	0.000057
1.356377 	0.000057
1.356487 	0.000057
1.356597 	0.000056
1.356708 	0.000056
1.356818 	0.000056
1.356928 	0.000056
1.357038 	0.000056
1.357148 	0.000056
1.357258 	0.000056
1.357368 	0.000056
1.357478 	0.000056
1.357588 	0.000056
1.357698 	0.000056
1.357808 	0.000056
1.357919 	0.000056
1.358029 	0.000056
1.358139 	0.000056
1.358249 	0.000056
1.358359 	0.000056
1.35847	 0.000056
1.35858	 0.000056
1.35869	 0.000056
1.3588	 0.000056
1.35891	 0.000056
1.359021 	0.000056
1.359131 	0.000056
1.359241 	0.000056
1.359351 	0.000056
1.359462 	0.000056
1.359572 	0.000056
1.359682 	0.000056
1.359792 	0.000056
1.359903 	0.000056
1.360013 	0.000056
1.360123 	0.000056
1.360234 	0.000056
1.360344 	0.000056
1.360454 	0.000061
1.360565 	0.000067
1.360675 	0.000073
1.360786 	0.00008
1.360896 	0.000086
1.361006 	0.000092
1.361117 	0.000098
1.361227 	0.000104
1.361338 	0.00011
1.361448 	0.000117
1.361559 	0.000123
1.361669 	0.000129
1.361779 	0.000135
1.36189	 0.000141
1.362	 0.000147
1.362111 	0.000154
1.362221 	0.00016
1.362332 	0.000166
1.362442 	0.000172
1.362553 	0.000178
1.362663 	0.000184
1.362774 	0.000191
1.362885 	0.000197
1.362995 	0.000203
1.363106 	0.000209
1.363216 	0.000215
1.363327 	0.000221
1.363438 	0.000227
1.363548 	0.000233
1.363659 	0.00024
1.363769 	0.000246
1.36388	 0.000252
1.363991 	0.000258
1.364101 	0.000264
1.364212 	0.00027
1.364323 	0.000276
1.364433 	0.000282
1.364544 	0.000288
1.364655 	0.000294
1.364765 	0.000301
1.364876 	0.000307
1.364987 	0.000313
1.365097 	0.000319
1.365208 	0.000325
1.365319 	0.000331
1.36543	 0.000331
1.365541 	0.000325
1.365651 	0.000318
1.365762 	0.000312
1.365873 	0.000306
1.365984 	0.0003
1.366094 	0.000293
1.366205 	0.000287
1.366316 	0.000281
1.366427 	0.000275
1.366538 	0.000269
1.366649 	0.000262
1.36676	 0.000256
1.36687	 0.00025
1.366981 	0.000244
1.367092 	0.000237
1.367203 	0.000231
1.367314 	0.000225
1.367425 	0.000219
1.367536 	0.000213
1.367647 	0.000206
1.367758 	0.0002
1.367869 	0.000194
1.36798	 0.000188
1.368091 	0.000182
1.368202 	0.000175
1.368313 	0.000169
1.368424 	0.000163
1.368535 	0.000157
1.368646 	0.000151
1.368757 	0.000145
1.368868 	0.000138
1.368979 	0.000132
1.36909	 0.000126
1.369201 	0.00012
1.369312 	0.000114
1.369423 	0.000108
1.369534 	0.000101
1.369645 	0.000095
1.369756 	0.000089
1.369867 	0.000083
1.369979 	0.000077
1.37009	 0.000071
1.370201 	0.000065
1.370312 	0.000058
1.370423 	0.000055
1.370534 	0.000055
1.370646 	0.000056
1.370757 	0.000056
1.370868 	0.000056
1.370979 	0.000057
1.37109	 0.000057
1.371202 	0.000057
1.371313 	0.000057
1.371424 	0.000058
1.371535 	0.000058
1.371647 	0.000058
1.371758 	0.000059
1.371869 	0.000059
1.37198	 0.000059
1.372092 	0.00006
1.372203 	0.00006
1.372314 	0.00006
1.372426 	0.00006
1.372537 	0.000061
1.372648 	0.000061
1.37276	 0.000061
1.372871 	0.000062
1.372982 	0.000062
1.373094 	0.000062
1.373205 	0.000062
1.373317 	0.000063
1.373428 	0.000063
1.373539 	0.000063
1.373651 	0.000064
1.373762 	0.000064
1.373874 	0.000064
1.373985 	0.000064
1.374097 	0.000065
1.374208 	0.000065
1.37432	 0.000065
1.374431 	0.000066
1.374543 	0.000066
1.374654 	0.000066
1.374766 	0.000066
1.374877 	0.000067
1.374989 	0.000067
1.3751	 0.000067
1.375212 	0.000068
1.375323 	0.000068
1.375435 	0.000068
1.375546 	0.000068
1.375658 	0.000069
1.37577	 0.000069
1.375881 	0.000069
1.375993 	0.00007
1.376104 	0.00007
1.376216 	0.00007
1.376328 	0.00007
1.376439 	0.000071
1.376551 	0.000071
1.376663 	0.000071
1.376774 	0.000072
1.376886 	0.000072
1.376998 	0.000072
1.377109 	0.000072
1.377221 	0.000073
1.377333 	0.000073
1.377445 	0.000073
1.377556 	0.000074
1.377668 	0.000074
1.37778	 0.000074
1.377892 	0.000074
1.378003 	0.000075
1.378115 	0.000075
1.378227 	0.000075
1.378339 	0.000075
1.378451 	0.000076
1.378562 	0.000076
1.378674 	0.000076
1.378786 	0.000077
1.378898 	0.000077
1.37901	 0.000077
1.379122 	0.000077
1.379234 	0.000078
1.379346 	0.000078
1.379457 	0.000078
1.379569 	0.000079
1.379681 	0.000079
1.379793 	0.000079
1.379905 	0.000079
1.380017 	0.00008
1.380129 	0.00008
1.380241 	0.00008
1.380353 	0.000081
1.380465 	0.000081
1.380577 	0.000081
1.380689 	0.000081
1.380801 	0.000082
1.380913 	0.000082
1.381025 	0.000082
1.381137 	0.000083
1.381249 	0.000083
1.381361 	0.000083
1.381473 	0.000083
1.381585 	0.000084
1.381697 	0.000084
1.381809 	0.000084
1.381921 	0.000084
1.382033 	0.000085
1.382146 	0.000085
1.382258 	0.000085
1.38237	 0.000086
1.382482 	0.000086
1.382594 	0.000086
1.382706 	0.000086
1.382818 	0.000087
1.382931 	0.000087
1.383043 	0.000087
1.383155 	0.000088
1.383267 	0.000088
1.383379 	0.000088
1.383492 	0.000089
1.383604 	0.000089
1.383716 	0.000089
1.383828 	0.00009
1.383941 	0.00009
1.384053 	0.00009
1.384165 	0.000091
1.384278 	0.000091
1.38439	 0.000091
1.384502 	0.000091
1.384614 	0.000092
1.384727 	0.000092
1.384839 	0.000092
1.384951 	0.000093
1.385064 	0.000093
1.385176 	0.000093
1.385288 	0.000094
1.385401 	0.000094
1.385513 	0.000094
1.385626 	0.000095
1.385738 	0.000095
1.38585	 0.000095
1.385963 	0.000096
1.386075 	0.000096
1.386188 	0.000096
1.3863	 0.000097
1.386413 	0.000097
1.386525 	0.000097
1.386638 	0.000098
1.38675	 0.000098
1.386863 	0.000098
1.386975 	0.000099
1.387088 	0.000099
1.3872	 0.000099
1.387313 	0.0001
1.387425 	0.0001
1.387538 	0.0001
1.38765	 0.000101
1.387763 	0.000101
1.387875 	0.000101
1.387988 	0.000102
1.388101 	0.000102
1.388213 	0.000102
1.388326 	0.000103
1.388439 	0.000103
1.388551 	0.000103
1.388664 	0.000104
1.388776 	0.000104
1.388889 	0.000104
1.389002 	0.000105
1.389114 	0.000105
1.389227 	0.000105
1.38934	 0.000106
1.389453 	0.000106
1.389565 	0.000106
1.389678 	0.000107
1.389791 	0.000107
1.389904 	0.000107
1.390016 	0.000108
1.390129 	0.000108
1.390242 	0.000108
1.390355 	0.000109
1.390467 	0.000109
1.39058	 0.000109
1.390693 	0.000109
1.390806 	0.000109
1.390919 	0.000109
1.391031 	0.000109
1.391144 	0.000109
1.391257 	0.000109
1.39137	 0.000109
1.391483 	0.000109
1.391596 	0.000109
1.391709 	0.000109
1.391822 	0.000109
1.391934 	0.000109
1.392047 	0.000109
1.39216	 0.000109
1.392273 	0.000109
1.392386 	0.000109
1.392499 	0.000109
1.392612 	0.000109
1.392725 	0.000109
1.392838 	0.000109
1.392951 	0.000109
1.393064 	0.000109
1.393177 	0.000109
1.39329	 0.000109
1.393403 	0.000109
1.393516 	0.000109
1.393629 	0.000109
1.393742 	0.000109
1.393855 	0.000109
1.393968 	0.000109
1.394081 	0.000109
1.394195 	0.000109
1.394308 	0.000109
1.394421 	0.000109
1.394534 	0.000109
1.394647 	0.00011
1.39476	 0.00011
1.394873 	0.00011
1.394986 	0.00011
1.3951	 0.00011
1.395213 	0.00011
1.395326 	0.00011
1.395439 	0.00011
1.395552 	0.000112
1.395666 	0.000113
1.395779 	0.000114
1.395892 	0.000115
1.396005 	0.000117
1.396118 	0.000118
1.396232 	0.000119
1.396345 	0.00012
1.396458 	0.000122
1.396572 	0.000123
1.396685 	0.000124
1.396798 	0.000126
1.396912 	0.000127
1.397025 	0.000128
1.397138 	0.000129
1.397251 	0.000131
1.397365 	0.000132
1.397478 	0.000133
1.397592 	0.000135
1.397705 	0.000136
1.397818 	0.000137
1.397932 	0.000138
1.398045 	0.00014
1.398158 	0.000141
1.398272 	0.000142
1.398385 	0.000143
1.398499 	0.000145
1.398612 	0.000146
1.398726 	0.000147
1.398839 	0.000149
1.398953 	0.00015
1.399066 	0.000151
1.39918	 0.000153
1.399293 	0.000154
1.399407 	0.000155
1.39952	 0.000156
1.399634 	0.000158
1.399747 	0.000159
1.399861 	0.00016
1.399974 	0.000162
1.400088 	0.000163
1.400202 	0.000164
1.400315 	0.000165
1.400429 	0.000166
1.400542 	0.000164
1.400656 	0.000163
1.40077	 0.000162
1.400883 	0.000161
1.400997 	0.000159
1.40111	 0.000158
1.401224 	0.000157
1.401338 	0.000156
1.401451 	0.000154
1.401565 	0.000153
1.401679 	0.000152
1.401793 	0.000151
1.401906 	0.00015
1.40202	 0.000148
1.402134 	0.000147
1.402248 	0.000146
1.402361 	0.000145
1.402475 	0.000143
1.402589 	0.000142
1.402703 	0.000141
1.402816 	0.00014
1.40293	 0.000138
1.403044 	0.000137
1.403158 	0.000136
1.403272 	0.000135
1.403385 	0.000133
1.403499 	0.000132
1.403613 	0.000131
1.403727 	0.00013
1.403841 	0.000128
1.403955 	0.000127
1.404069 	0.000126
1.404183 	0.000125
1.404296 	0.000123
1.40441	 0.000122
1.404524 	0.000121
1.404638 	0.00012
1.404752 	0.000118
1.404866 	0.000117
1.40498	 0.000116
1.405094 	0.000115
1.405208 	0.000113
1.405322 	0.000112
1.405436 	0.000111
1.40555	 0.000111
1.405664 	0.000111
1.405778 	0.000111
1.405892 	0.000111
1.406006 	0.000111
1.40612	 0.000111
1.406234 	0.000111
1.406348 	0.000111
1.406463 	0.000111
1.406577 	0.000111
1.406691 	0.000111
1.406805 	0.000111
1.406919 	0.000111
1.407033 	0.000111
1.407147 	0.000112
1.407261 	0.000112
1.407376 	0.000112
1.40749	 0.000112
1.407604 	0.000112
1.407718 	0.000112
1.407832 	0.000112
1.407946 	0.000112
1.408061 	0.000112
1.408175 	0.000112
1.408289 	0.000112
1.408403 	0.000112
1.408518 	0.000112
1.408632 	0.000112
1.408746 	0.000112
1.408861 	0.000112
1.408975 	0.000112
1.409089 	0.000112
1.409203 	0.000112
1.409318 	0.000112
1.409432 	0.000112
1.409546 	0.000112
1.409661 	0.000112
1.409775 	0.000112
1.409889 	0.000112
1.410004 	0.000112
1.410118 	0.000112
1.410233 	0.000112
1.410347 	0.000112
1.410461 	0.000111
1.410576 	0.00011
1.41069	 0.000109
1.410805 	0.000107
1.410919 	0.000106
1.411034 	0.000105
1.411148 	0.000103
1.411263 	0.000102
1.411377 	0.000101
1.411492 	0.0001
1.411606 	0.000098
1.411721 	0.000097
1.411835 	0.000096
1.41195	 0.000095
1.412064 	0.000093
1.412179 	0.000092
1.412293 	0.000091
1.412408 	0.000089
1.412522 	0.000088
1.412637 	0.000087
1.412752 	0.000086
1.412866 	0.000084
1.412981 	0.000083
1.413095 	0.000082
1.41321	 0.000081
1.413325 	0.000079
1.413439 	0.000078
1.413554 	0.000077
1.413669 	0.000075
1.413783 	0.000074
1.413898 	0.000073
1.414013 	0.000072
1.414127 	0.00007
1.414242 	0.000069
1.414357 	0.000068
1.414472 	0.000066
1.414586 	0.000065
1.414701 	0.000064
1.414816 	0.000063
1.414931 	0.000061
1.415046 	0.00006
1.41516	 0.000059
1.415275 	0.000057
1.41539	 0.000056
1.415505 	0.000059
1.41562	 0.000061
1.415734 	0.000064
1.415849 	0.000067
1.415964 	0.000069
1.416079 	0.000072
1.416194 	0.000074
1.416309 	0.000077
1.416424 	0.00008
1.416538 	0.000082
1.416653 	0.000085
1.416768 	0.000087
1.416883 	0.00009
1.416998 	0.000093
1.417113 	0.000095
1.417228 	0.000098
1.417343 	0.0001
1.417458 	0.000103
1.417573 	0.000106
1.417688 	0.000108
1.417803 	0.000111
1.417918 	0.000113
1.418033 	0.000116
1.418148 	0.000119
1.418263 	0.000121
1.418378 	0.000124
1.418493 	0.000126
1.418608 	0.000129
1.418723 	0.000132
1.418839 	0.000134
1.418954 	0.000137
1.419069 	0.000139
1.419184 	0.000142
1.419299 	0.000145
1.419414 	0.000147
1.419529 	0.00015
1.419644 	0.000152
1.41976	 0.000155
1.419875 	0.000158
1.41999	 0.00016
1.420105 	0.000163
1.42022	 0.000166
1.420336 	0.000168
1.420451 	0.000169
1.420566 	0.000167
1.420681 	0.000166
1.420796 	0.000165
1.420912 	0.000163
1.421027 	0.000162
1.421142 	0.000161
1.421258 	0.000159
1.421373 	0.000158
1.421488 	0.000157
1.421604 	0.000156
1.421719 	0.000154
1.421834 	0.000153
1.42195	 0.000152
1.422065 	0.00015
1.42218	 0.000149
1.422296 	0.000148
1.422411 	0.000146
1.422526 	0.000145
1.422642 	0.000144
1.422757 	0.000143
1.422873 	0.000141
1.422988 	0.00014
1.423103 	0.000139
1.423219 	0.000137
1.423334 	0.000136
1.42345	 0.000135
1.423565 	0.000133
1.423681 	0.000132
1.423796 	0.000131
1.423912 	0.00013
1.424027 	0.000128
1.424143 	0.000127
1.424258 	0.000126
1.424374 	0.000124
1.424489 	0.000123
1.424605 	0.000122
1.424721 	0.00012
1.424836 	0.000119
1.424952 	0.000118
1.425067 	0.000117
1.425183 	0.000115
1.425299 	0.000114
1.425414 	0.000113
1.42553	 0.000115
1.425645 	0.000116
1.425761 	0.000117
1.425877 	0.000118
1.425992 	0.00012
1.426108 	0.000121
1.426224 	0.000122
1.426339 	0.000124
1.426455 	0.000125
1.426571 	0.000126
1.426687 	0.000128
1.426802 	0.000129
1.426918 	0.00013
1.427034 	0.000132
1.42715	 0.000133
1.427265 	0.000134
1.427381 	0.000135
1.427497 	0.000137
1.427613 	0.000138
1.427729 	0.000139
1.427844 	0.000141
1.42796	 0.000142
1.428076 	0.000143
1.428192 	0.000145
1.428308 	0.000146
1.428424 	0.000147
1.42854	 0.000149
1.428655 	0.00015
1.428771 	0.000151
1.428887 	0.000152
1.429003 	0.000154
1.429119 	0.000155
1.429235 	0.000156
1.429351 	0.000158
1.429467 	0.000159
1.429583 	0.00016
1.429699 	0.000162
1.429815 	0.000163
1.429931 	0.000164
1.430047 	0.000166
1.430163 	0.000167
1.430279 	0.000168
1.430395 	0.000169
1.430511 	0.000168
1.430627 	0.000167
1.430743 	0.000165
1.430859 	0.000164
1.430975 	0.000163
1.431091 	0.000162
1.431207 	0.00016
1.431323 	0.000159
1.43144	 0.000158
1.431556 	0.000156
1.431672 	0.000155
1.431788 	0.000154
1.431904 	0.000152
1.43202	 0.000151
1.432136 	0.00015
1.432253 	0.000148
1.432369 	0.000147
1.432485 	0.000146
1.432601 	0.000145
1.432717 	0.000143
1.432834 	0.000142
1.43295	 0.000141
1.433066 	0.000139
1.433182 	0.000138
1.433299 	0.000137
1.433415 	0.000135
1.433531 	0.000134
1.433647 	0.000133
1.433764 	0.000131
1.43388	 0.00013
1.433996 	0.000129
1.434113 	0.000127
1.434229 	0.000126
1.434345 	0.000125
1.434462 	0.000124
1.434578 	0.000122
1.434695 	0.000121
1.434811 	0.00012
1.434927 	0.000118
1.435044 	0.000117
1.43516	 0.000116
1.435277 	0.000114
1.435393 	0.000113
1.435509 	0.000114
1.435626 	0.000116
1.435742 	0.000117
1.435859 	0.000118
1.435975 	0.00012
1.436092 	0.000121
1.436208 	0.000122
1.436325 	0.000124
1.436441 	0.000125
1.436558 	0.000126
1.436674 	0.000128
1.436791 	0.000129
1.436907 	0.00013
1.437024 	0.000131
1.437141 	0.000133
1.437257 	0.000134
1.437374 	0.000135
1.43749	 0.000137
1.437607 	0.000138
1.437724 	0.000139
1.43784	 0.000141
1.437957 	0.000142
1.438074 	0.000143
1.43819	 0.000145
1.438307 	0.000146
1.438424 	0.000147
1.43854	 0.000149
1.438657 	0.00015
1.438774 	0.000151
1.43889	 0.000153
1.439007 	0.000154
1.439124 	0.000155
1.439241 	0.000157
1.439357 	0.000158
1.439474 	0.000159
1.439591 	0.00016
1.439708 	0.000162
1.439824 	0.000163
1.439941 	0.000164
1.440058 	0.000166
1.440175 	0.000167
1.440292 	0.000168
1.440408 	0.00017
1.440525 	0.000171
1.440642 	0.000172
1.440759 	0.000174
1.440876 	0.000175
1.440993 	0.000176
1.44111	 0.000178
1.441227 	0.000179
1.441344 	0.00018
1.441461 	0.000181
1.441577 	0.000183
1.441694 	0.000184
1.441811 	0.000185
1.441928 	0.000187
1.442045 	0.000188
1.442162 	0.000189
1.442279 	0.000191
1.442396 	0.000192
1.442513 	0.000193
1.44263	 0.000195
1.442747 	0.000196
1.442864 	0.000197
1.442981 	0.000199
1.443098 	0.0002
1.443216 	0.000201
1.443333 	0.000203
1.44345	 0.000204
1.443567 	0.000205
1.443684 	0.000207
1.443801 	0.000208
1.443918 	0.000209
1.444035 	0.00021
1.444152 	0.000212
1.44427	 0.000213
1.444387 	0.000214
1.444504 	0.000216
1.444621 	0.000217
1.444738 	0.000218
1.444855 	0.00022
1.444973 	0.000221
1.44509	 0.000222
1.445207 	0.000224
1.445324 	0.000225
1.445442 	0.000226
1.445559 	0.000226
1.445676 	0.000226
1.445793 	0.000226
1.445911 	0.000226
1.446028 	0.000226
1.446145 	0.000226
1.446263 	0.000226
1.44638	 0.000226
1.446497 	0.000226
1.446615 	0.000226
1.446732 	0.000226
1.446849 	0.000226
1.446967 	0.000226
1.447084 	0.000226
1.447201 	0.000226
1.447319 	0.000226
1.447436 	0.000226
1.447554 	0.000226
1.447671 	0.000226
1.447789 	0.000226
1.447906 	0.000226
1.448024 	0.000226
1.448141 	0.000226
1.448258 	0.000226
1.448376 	0.000226
1.448493 	0.000226
1.448611 	0.000226
1.448728 	0.000226
1.448846 	0.000226
1.448963 	0.000226
1.449081 	0.000226
1.449199 	0.000226
1.449316 	0.000226
1.449434 	0.000226
1.449551 	0.000226
1.449669 	0.000226
1.449787 	0.000226
1.449904 	0.000226
1.450022 	0.000226
1.450139 	0.000226
1.450257 	0.000226
1.450375 	0.000226
1.450492 	0.000225
1.45061	 0.000223
1.450728 	0.000222
1.450845 	0.000221
1.450963 	0.000219
1.451081 	0.000218
1.451198 	0.000217
1.451316 	0.000215
1.451434 	0.000214
1.451552 	0.000213
1.451669 	0.000211
1.451787 	0.00021
1.451905 	0.000209
1.452023 	0.000207
1.452141 	0.000206
1.452258 	0.000205
1.452376 	0.000203
1.452494 	0.000202
1.452612 	0.000201
1.45273	 0.000199
1.452847 	0.000198
1.452965 	0.000197
1.453083 	0.000195
1.453201 	0.000194
1.453319 	0.000193
1.453437 	0.000191
1.453555 	0.00019
1.453673 	0.000189
1.453791 	0.000187
1.453909 	0.000186
1.454026 	0.000185
1.454144 	0.000183
1.454262 	0.000182
1.45438	 0.000181
1.454498 	0.000179
1.454616 	0.000178
1.454734 	0.000177
1.454852 	0.000175
1.45497	 0.000174
1.455088 	0.000173
1.455206 	0.000172
1.455325 	0.00017
1.455443 	0.000169
1.455561 	0.000169
1.455679 	0.000169
1.455797 	0.000169
1.455915 	0.000169
1.456033 	0.000169
1.456151 	0.000169
1.456269 	0.000169
1.456387 	0.000169
1.456506 	0.000169
1.456624 	0.000169
1.456742 	0.000169
1.45686	 0.000169
1.456978 	0.000169
1.457096 	0.000169
1.457215 	0.000169
1.457333 	0.000169
1.457451 	0.000169
1.457569 	0.000169
1.457688 	0.000169
1.457806 	0.000169
1.457924 	0.000169
1.458042 	0.000169
1.458161 	0.000169
1.458279 	0.000169
1.458397 	0.000169
1.458516 	0.000169
1.458634 	0.000169
1.458752 	0.000169
1.458871 	0.000169
1.458989 	0.000169
1.459107 	0.000169
1.459226 	0.000169
1.459344 	0.00017
1.459462 	0.00017
1.459581 	0.00017
1.459699 	0.00017
1.459817 	0.00017
1.459936 	0.00017
1.460054 	0.00017
1.460173 	0.00017
1.460291 	0.00017
1.46041	 0.000169
1.460528 	0.000168
1.460647 	0.000167
1.460765 	0.000165
1.460884 	0.000164
1.461002 	0.000163
1.461121 	0.000161
1.461239 	0.00016
1.461358 	0.000159
1.461476 	0.000157
1.461595 	0.000156
1.461713 	0.000155
1.461832 	0.000153
1.461951 	0.000152
1.462069 	0.000151
1.462188 	0.000149
1.462306 	0.000148
1.462425 	0.000147
1.462544 	0.000145
1.462662 	0.000144
1.462781 	0.000143
1.4629	 0.000141
1.463018 	0.00014
1.463137 	0.000139
1.463256 	0.000137
1.463374 	0.000136
1.463493 	0.000135
1.463612 	0.000133
1.463731 	0.000132
1.463849 	0.000131
1.463968 	0.000129
1.464087 	0.000128
1.464206 	0.000127
1.464324 	0.000125
1.464443 	0.000124
1.464562 	0.000123
1.464681 	0.000121
1.4648	 0.00012
1.464918 	0.000119
1.465037 	0.000117
1.465156 	0.000116
1.465275 	0.000114
1.465394 	0.000113
1.465513 	0.000114
1.465632 	0.000116
1.46575	 0.000117
1.465869 	0.000118
1.465988 	0.00012
1.466107 	0.000121
1.466226 	0.000122
1.466345 	0.000124
1.466464 	0.000125
1.466583 	0.000126
1.466702 	0.000128
1.466821 	0.000129
1.46694	 0.000131
1.467059 	0.000132
1.467178 	0.000133
1.467297 	0.000135
1.467416 	0.000136
1.467535 	0.000137
1.467654 	0.000139
1.467773 	0.00014
1.467892 	0.000141
1.468011 	0.000143
1.46813	 0.000144
1.46825	 0.000145
1.468369 	0.000147
1.468488 	0.000148
1.468607 	0.000149
1.468726 	0.000151
1.468845 	0.000152
1.468964 	0.000153
1.469083 	0.000155
1.469203 	0.000156
1.469322 	0.000158
1.469441 	0.000159
1.46956	 0.00016
1.469679 	0.000162
1.469799 	0.000163
1.469918 	0.000164
1.470037 	0.000166
1.470156 	0.000167
1.470276 	0.000168
1.470395 	0.00017
1.470514 	0.000198
1.470634 	0.000227
1.470753 	0.000257
1.470872 	0.000287
1.470992 	0.000316
1.471111 	0.000346
1.47123	 0.000376
1.47135	 0.000405
1.471469 	0.000401
1.471588 	0.00037
1.471708 	0.000339
1.471827 	0.000308
1.471946 	0.000277
1.472066 	0.000246
1.472185 	0.000215
1.472305 	0.000184
1.472424 	0.000161
1.472544 	0.000178
1.472663 	0.000194
1.472782 	0.00021
1.472902 	0.000226
1.473021 	0.000242
1.473141 	0.000259
1.47326	 0.000275
1.47338	 0.000291
1.473499 	0.000296
1.473619 	0.000299
1.473739 	0.000302
1.473858 	0.000305
1.473978 	0.000307
1.474097 	0.00031
1.474217 	0.000313
1.474336 	0.000316
1.474456 	0.000321
1.474576 	0.000331
1.474695 	0.00034
1.474815 	0.00035
1.474934 	0.000359
1.475054 	0.000369
1.475174 	0.000378
1.475293 	0.000388
1.475413 	0.000397
1.475533 	0.000412
1.475653 	0.000427
1.475772 	0.000442
1.475892 	0.000457
1.476012 	0.000472
1.476131 	0.000487
1.476251 	0.000502
1.476371 	0.000517
1.476491 	0.000517
1.47661	 0.000511
1.47673	 0.000506
1.47685	 0.000501
1.47697	 0.000495
1.47709	 0.00049
1.47721	 0.000484
1.477329 	0.000479
1.477449 	0.000481
1.477569 	0.000496
1.477689 	0.000511
1.477809 	0.000526
1.477929 	0.000541
1.478049 	0.000556
1.478168 	0.000571
1.478288 	0.000586
1.478408 	0.000601
1.478528 	0.000623
1.478648 	0.000645
1.478768 	0.000666
1.478888 	0.000688
1.479008 	0.00071
1.479128 	0.000731
1.479248 	0.000753
1.479368 	0.000775
1.479488 	0.000791
1.479608 	0.000806
1.479728 	0.000821
1.479848 	0.000836
1.479968 	0.000851
1.480088 	0.000866
1.480208 	0.000881
1.480328 	0.000896
1.480448 	0.000922
1.480569 	0.000969
1.480689 	0.001015
1.480809 	0.001061
1.480929 	0.001107
1.481049 	0.001154
1.481169 	0.0012
1.481289 	0.001246
1.48141	 0.001292
1.48153	 0.001317
1.48165	 0.001343
1.48177	 0.001369
1.48189	 0.001395
1.482011 	0.001421
1.482131 	0.001447
1.482251 	0.001473
1.482371 	0.001499
1.482492 	0.001549
1.482612 	0.001609
1.482732 	0.001669
1.482852 	0.001729
1.482973 	0.001789
1.483093 	0.001848
1.483213 	0.001908
1.483333 	0.001968
1.483454 	0.002036
1.483574 	0.002116
1.483695 	0.002196
1.483815 	0.002276
1.483935 	0.002357
1.484056 	0.002437
1.484176 	0.002517
1.484296 	0.002598
1.484417 	0.002679
1.484537 	0.002766
1.484658 	0.002853
1.484778 	0.002941
1.484899 	0.003028
1.485019 	0.003115
1.48514	 0.003203
1.48526	 0.00329
1.48538	 0.003377
1.485501 	0.003507
1.485621 	0.003647
1.485742 	0.003788
1.485863 	0.003928
1.485983 	0.004069
1.486104 	0.004209
1.486224 	0.00435
1.486345 	0.00449
1.486465 	0.004671
1.486586 	0.004894
1.486707 	0.005117
1.486827 	0.00534
1.486948 	0.005563
1.487068 	0.005785
1.487189 	0.006007
1.48731	 0.00623
1.48743	 0.006463
1.487551 	0.006739
1.487672 	0.007014
1.487792 	0.00729
1.487913 	0.007566
1.488034 	0.007843
1.488154 	0.008119
1.488275 	0.008396
1.488396 	0.008673
1.488517 	0.009056
1.488637 	0.00945
1.488758 	0.009843
1.488879 	0.010237
1.489	 0.010631
1.489121 	0.011025
1.489241 	0.011419
1.489362 	0.011813
1.489483 	0.012292
1.489604 	0.012822
1.489725 	0.013352
1.489845 	0.013882
1.489966 	0.014413
1.490087 	0.014943
1.490208 	0.015473
1.490329 	0.016004
1.49045	 0.016638
1.490571 	0.017462
1.490692 	0.018287
1.490813 	0.019112
1.490933 	0.019937
1.491054 	0.020762
1.491175 	0.021584
1.491296 	0.022407
1.491417 	0.023257
1.491538 	0.024401
1.491659 	0.025545
1.49178	 0.02669
1.491901 	0.027834
1.492022 	0.028978
1.492143 	0.030125
1.492264 	0.031272
1.492386 	0.03242
1.492507 	0.033975
1.492628 	0.035621
1.492749 	0.037268
1.49287	 0.038915
1.492991 	0.040564
1.493112 	0.042211
1.493233 	0.043859
1.493354 	0.045508
1.493475 	0.047576
1.493597 	0.049982
1.493718 	0.052386
1.493839 	0.054791
1.49396	 0.057197
1.494081 	0.059603
1.494203 	0.062009
1.494324 	0.064415
1.494445 	0.067139
1.494566 	0.070589
1.494687 	0.074041
1.494809 	0.077491
1.49493	 0.080944
1.495051 	0.084393
1.495173 	0.087837
1.495294 	0.091281
1.495415 	0.094792
1.495536 	0.099504
1.495658 	0.104219
1.495779 	0.108929
1.4959	 0.113642
1.496022 	0.118353
1.496143 	0.123077
1.496265 	0.127801
1.496386 	0.132525
1.496507 	0.138392
1.496629 	0.144523
1.49675	 0.150654
1.496872 	0.156791
1.496993 	0.162922
1.497114 	0.169054
1.497236 	0.175192
1.497357 	0.181329
1.497479 	0.188184
1.4976	 0.195572
1.497722 	0.20296
1.497843 	0.210349
1.497965 	0.217737
1.498086 	0.22511
1.498208 	0.232482
1.498329 	0.239846
1.498451 	0.247491
1.498572 	0.25567
1.498694 	0.263847
1.498816 	0.272023
1.498937 	0.280197
1.499059 	0.288384
1.49918	 0.296586
1.499302 	0.304794
1.499424 	0.312951
1.499545 	0.320762
1.499667 	0.328567
1.499789 	0.336379
1.49991	 0.344191
1.500032 	0.351997
1.500154 	0.359789
1.500275 	0.367579
1.500397 	0.375369
1.500519 	0.382284
1.50064	 0.389089
1.500762 	0.395898
1.500884 	0.402702
1.501006 	0.409508
1.501127 	0.416274
1.501249 	0.423038
1.501371 	0.4298
1.501493 	0.43538
1.501615 	0.440402
1.501736 	0.445419
1.501858 	0.450434
1.50198	 0.455452
1.502102 	0.460508
1.502224 	0.46557
1.502346 	0.470628
1.502467 	0.474967
1.502589 	0.478482
1.502711 	0.481999
1.502833 	0.485513
1.502955 	0.489027
1.503077 	0.492544
1.503199 	0.496057
1.503321 	0.499573
1.503443 	0.502757
1.503565 	0.505013
1.503687 	0.507269
1.503809 	0.509524
1.503931 	0.511779
1.504053 	0.514012
1.504175 	0.516217
1.504297 	0.518419
1.504419 	0.520569
1.504541 	0.521947
1.504663 	0.523323
1.504785 	0.524698
1.504907 	0.526074
1.505029 	0.527464
1.505151 	0.528892
1.505273 	0.53032
1.505396 	0.53175
1.505518 	0.532729
1.50564	 0.533642
1.505762 	0.534555
1.505884 	0.535467
1.506006 	0.536381
1.506128 	0.537293
1.50625	 0.538206
1.506373 	0.539119
1.506495 	0.539793
1.506617 	0.540355
1.506739 	0.540917
1.506862 	0.541479
1.506984 	0.542041
1.507106 	0.542555
1.507228 	0.543062
1.507351 	0.543569
1.507473 	0.543956
1.507595 	0.544222
1.507717 	0.544488
1.50784	 0.544753
1.507962 	0.545019
1.508084 	0.545323
1.508207 	0.545643
1.508329 	0.545964
1.508451 	0.546278
1.508574 	0.546578
1.508696 	0.546879
1.508819 	0.547179
1.508941 	0.547479
1.509063 	0.547779
1.509186 	0.548079
1.509308 	0.548379
1.509431 	0.548655
1.509553 	0.54879
1.509676 	0.548925
1.509798 	0.54906
1.509921 	0.549195
1.510043 	0.54931
1.510166 	0.549389
1.510288 	0.549469
1.510411 	0.549548
1.510533 	0.549661
1.510656 	0.549774
1.510778 	0.549888
1.510901 	0.550001
1.511023 	0.550125
1.511146 	0.550294
1.511268 	0.550463
1.511391 	0.550633
1.511514 	0.550655
1.511636 	0.550645
1.511759 	0.550636
1.511882 	0.550626
1.512004 	0.550616
1.512127 	0.550607
1.51225	 0.550597
1.512372 	0.550588
1.512495 	0.55055
1.512618 	0.550499
1.51274	 0.550448
1.512863 	0.550397
1.512986 	0.550347
1.513108 	0.550246
1.513231 	0.550139
1.513354 	0.550032
1.513477 	0.549854
1.5136	 0.54961
1.513722 	0.549365
1.513845 	0.549121
1.513968 	0.548877
1.514091 	0.548674
1.514214 	0.548485
1.514336 	0.548297
1.514459 	0.548131
1.514582 	0.548005
1.514705 	0.547878
1.514828 	0.547751
1.514951 	0.547625
1.515074 	0.547498
1.515197 	0.547372
1.515319 	0.547245
1.515442 	0.547096
1.515565 	0.546874
1.515688 	0.54665
1.515811 	0.546428
1.515934 	0.546205
1.516057 	0.545956
1.51618	 0.545677
1.516303 	0.545399
1.516426 	0.545115
1.516549 	0.544781
1.516672 	0.544448
1.516795 	0.544115
1.516918 	0.543781
1.517041 	0.543467
1.517164 	0.543189
1.517287 	0.542911
1.517411 	0.542633
1.517534 	0.542382
1.517657 	0.542132
1.51778	 0.541882
1.517903 	0.541632
1.518026 	0.541369
1.518149 	0.541064
1.518272 	0.540759
1.518396 	0.540453
1.518519 	0.540142
1.518642 	0.53983
1.518765 	0.539518
1.518888 	0.539205
1.519012 	0.538898
1.519135 	0.538641
1.519258 	0.538385
1.519381 	0.538128
1.519505 	0.537971
1.519628 	0.537851
1.519751 	0.537732
1.519874 	0.537613
1.519998 	0.537493
1.520121 	0.537369
1.520244 	0.537244
1.520368 	0.537119
1.520491 	0.536973
1.520614 	0.536814
1.520738 	0.536655
1.520861 	0.536496
1.520984 	0.536336
1.521108 	0.536129
1.521231 	0.535915
1.521355 	0.535701
1.521478 	0.535504
1.521601 	0.535325
1.521725 	0.535145
1.521848 	0.534965
1.521972 	0.534786
1.522095 	0.534649
1.522219 	0.534524
1.522342 	0.534399
1.522466 	0.534308
1.522589 	0.534266
1.522713 	0.534224
1.522836 	0.534182
1.52296	 0.53414
1.523083 	0.534061
1.523207 	0.533963
1.52333	 0.533867
1.523454 	0.533749
1.523578 	0.533583
1.523701 	0.533417
1.523825 	0.533251
1.523948 	0.533086
1.524072 	0.532952
1.524196 	0.532841
1.524319 	0.53273
1.524443 	0.532621
1.524567 	0.532517
1.52469	 0.532413
1.524814 	0.532309
1.524938 	0.532205
1.525061 	0.532102
1.525185 	0.531997
1.525309 	0.531894
1.525433 	0.531803
1.525556 	0.531802
1.52568	 0.531801
1.525804 	0.5318
1.525928 	0.5318
1.526051 	0.531776
1.526175 	0.531721
1.526299 	0.531665
1.526423 	0.531608
1.526547 	0.531525
1.526671 	0.531442
1.526794 	0.531359
1.526918 	0.531276
1.527042 	0.531211
1.527166 	0.531183
1.52729	 0.531155
1.527414 	0.531127
1.527538 	0.530998
1.527662 	0.530867
1.527786 	0.530735
1.527909 	0.530604
1.528033 	0.530458
1.528157 	0.530271
1.528281 	0.530085
1.528405 	0.529899
1.528529 	0.529862
1.528653 	0.529841
1.528777 	0.52982
1.528901 	0.529798
1.529025 	0.529788
1.529149 	0.529822
1.529273 	0.529856
1.529398 	0.52989
1.529522 	0.529917
1.529646 	0.529944
1.52977	 0.529971
1.529894 	0.529997
1.530018 	0.530016
1.530142 	0.529988
1.530266 	0.52996
1.53039	 0.529932
1.530514 	0.529834
1.530639 	0.529717
1.530763 	0.529599
1.530887 	0.529482
1.531011 	0.529369
1.531135 	0.529307
1.53126	 0.529244
1.531384 	0.529181
1.531508 	0.529163
1.531632 	0.529162
1.531757 	0.529162
1.531881 	0.529161
1.532005 	0.529158
1.532129 	0.529102
1.532254 	0.529046
1.532378 	0.528991
1.532502 	0.528926
1.532627 	0.528857
1.532751 	0.528787
1.532875 	0.528718
1.533	 0.528648
1.533124 	0.528633
1.533248 	0.528619
1.533373 	0.528604
1.533497 	0.528633
1.533621 	0.528687
1.533746 	0.528741
1.53387	 0.528795
1.533995 	0.528849
1.534119 	0.528851
1.534244 	0.52885
1.534368 	0.528849
1.534493 	0.528804
1.534617 	0.528727
1.534742 	0.528651
1.534866 	0.528574
1.534991 	0.528498
1.535115 	0.528473
1.53524	 0.528451
1.535364 	0.52843
1.535489 	0.528412
1.535613 	0.528397
1.535738 	0.528383
1.535862 	0.528368
1.535987 	0.528354
1.536112 	0.528339
1.536236 	0.528324
1.536361 	0.52831
1.536486 	0.528342
1.53661	 0.528417
1.536735 	0.528491
1.536859 	0.528566
1.536984 	0.528641
1.537109 	0.528667
1.537233 	0.528687
1.537358 	0.528706
1.537483 	0.528709
1.537608 	0.528694
1.537732 	0.528679
1.537857 	0.528664
1.537982 	0.528649
1.538107 	0.528681
1.538231 	0.528721
1.538356 	0.528762
1.538481 	0.528792
1.538606 	0.528812
1.538731 	0.528831
1.538855 	0.528851
1.53898	 0.52887
1.539105 	0.528844
1.53923	 0.528808
1.539355 	0.528772
1.53948	 0.528776
1.539605 	0.528823
1.539729 	0.528869
1.539854 	0.528916
1.539979 	0.528963
1.540104 	0.529058
1.540229 	0.529163
1.540354 	0.529269
1.540479 	0.529351
1.540604 	0.529409
1.540729 	0.529466
1.540854 	0.529523
1.540979 	0.529581
1.541104 	0.529591
1.541229 	0.529593
1.541354 	0.529595
1.541479 	0.52959
1.541604 	0.529578
1.541729 	0.529567
1.541854 	0.529555
1.541979 	0.529543
1.542104 	0.529577
1.54223	 0.52962
1.542355 	0.529664
1.54248	 0.52973
1.542605 	0.529821
1.54273	 0.529913
1.542855 	0.530004
1.54298	 0.530096
1.543106 	0.53014
1.543231 	0.530176
1.543356 	0.530212
1.543481 	0.530218
1.543606 	0.530192
1.543732 	0.530166
1.543857 	0.53014
1.543982 	0.530114
1.544107 	0.530136
1.544233 	0.530166
1.544358 	0.530195
1.544483 	0.530255
1.544608 	0.530346
1.544734 	0.530438
1.544859 	0.530529
1.544984 	0.530621
1.54511	 0.530663
1.545235 	0.530699
1.54536	 0.530734
1.545486 	0.530763
1.545611 	0.530784
1.545737 	0.530806
1.545862 	0.530828
1.545987 	0.53085
1.546113 	0.530871
1.546238 	0.530893
1.546364 	0.530915
1.546489 	0.530936
1.546614 	0.530958
1.54674	 0.53098
1.546865 	0.531001
1.546991 	0.531023
1.547116 	0.531096
1.547242 	0.531173
1.547367 	0.531251
1.547493 	0.531309
1.547618 	0.531352
1.547744 	0.531396
1.54787	 0.531439
1.547995 	0.531482
1.548121 	0.531471
1.548246 	0.531458
1.548372 	0.531445
1.548498 	0.53142
1.548623 	0.531387
1.548749 	0.531353
1.548874 	0.53132
1.549	 0.531286
1.549126 	0.531309
1.549251 	0.531331
1.549377 	0.531354
1.549503 	0.531385
1.549628 	0.531422
1.549754 	0.531458
1.54988	 0.531494
1.550006 	0.531529
1.550131 	0.531527
1.550257 	0.531525
1.550383 	0.531523
1.550509 	0.531525
1.550634 	0.53153
1.55076	 0.531535
1.550886 	0.53154
1.551012 	0.53155
1.551138 	0.531611
1.551263 	0.531672
1.551389 	0.531733
1.551515 	0.531789
1.551641 	0.531844
1.551767 	0.531898
1.551893 	0.531952
1.552019 	0.531998
1.552145 	0.531996
1.552271 	0.531994
1.552396 	0.531991
1.552522 	0.531984
1.552648 	0.531975
1.552774 	0.531966
1.5529	 0.531957
1.553026 	0.531959
1.553152 	0.532007
1.553278 	0.532054
1.553404 	0.532102
1.55353	 0.532137
1.553656 	0.532171
1.553782 	0.532204
1.553908 	0.532238
1.554034 	0.532257
1.55416	 0.532234
1.554287 	0.532211
1.554413 	0.532188
1.554539 	0.532153
1.554665 	0.532116
1.554791 	0.53208
1.554917 	0.532043
1.555043 	0.532006
1.555169 	0.53197
1.555296 	0.531933
1.555422 	0.531896
1.555548 	0.531933
1.555674 	0.531972
1.5558	 0.532011
1.555926 	0.532049
1.556053 	0.532111
1.556179 	0.532207
1.556305 	0.532302
1.556431 	0.53239
1.556558 	0.532335
1.556684 	0.532279
1.55681	 0.532224
1.556937 	0.532168
1.557063 	0.532085
1.557189 	0.531972
1.557315 	0.53186
1.557442 	0.531747
1.557568 	0.531628
1.557694 	0.531509
1.557821 	0.53139
1.557947 	0.531272
1.558074 	0.531186
1.5582	 0.531123
1.558326 	0.531061
1.558453 	0.530959
1.558579 	0.530712
1.558706 	0.530465
1.558832 	0.530217
1.558959 	0.52997
1.559085 	0.529685
1.559212 	0.529381
1.559338 	0.529077
1.559464 	0.528705
1.559591 	0.528174
1.559717 	0.527645
1.559844 	0.527115
1.559971 	0.526585
1.560097 	0.526096
1.560224 	0.525619
1.56035	 0.525142
1.560477 	0.524498
1.560603 	0.523603
1.56073	 0.522707
1.560857 	0.521813
1.560983 	0.520918
1.56111	 0.519975
1.561237 	0.519024
1.561363 	0.518073
1.56149	 0.516742
1.561617 	0.515032
1.561743 	0.513322
1.56187	 0.511611
1.561997 	0.509901
1.562123 	0.508191
1.56225	 0.506482
1.562377 	0.504773
1.562504 	0.502479
1.56263	 0.499805
1.562757 	0.497132
1.562884 	0.494459
1.563011 	0.491791
1.563137 	0.489171
1.563264 	0.486552
1.563391 	0.483931
1.563518 	0.480442
1.563645 	0.476611
1.563771 	0.472777
1.563898 	0.468943
1.564025 	0.465097
1.564152 	0.461214
1.564279 	0.457332
1.564406 	0.453448
1.564533 	0.448487
1.56466	 0.443304
1.564787 	0.438126
1.564914 	0.432945
1.565041 	0.427765
1.565167 	0.422587
1.565295 	0.417406
1.565421 	0.412231
1.565548 	0.406027
1.565675 	0.399768
1.565802 	0.393515
1.565929 	0.387259
1.566057 	0.381023
1.566184 	0.374811
1.566311 	0.368598
1.566438 	0.362328
1.566565 	0.355369
1.566692 	0.348411
1.566819 	0.341447
1.566946 	0.334489
1.567073 	0.327505
1.5672	 0.320508
1.567327 	0.313513
1.567455 	0.3065
1.567582 	0.299413
1.567709 	0.292328
1.567836 	0.285244
1.567963 	0.278157
1.56809	 0.271099
1.568218 	0.264043
1.568345 	0.256994
1.568472 	0.250122
1.568599 	0.243602
1.568727 	0.237083
1.568854 	0.230563
1.568981 	0.224039
1.569108 	0.2175
1.569236 	0.210959
1.569363 	0.204415
1.56949	 0.198287
1.569618 	0.192607
1.569745 	0.186923
1.569872 	0.181242
1.57	 0.175562
1.570127 	0.169883
1.570254 	0.164201
1.570382 	0.158526
1.570509 	0.15342
1.570637 	0.148657
1.570764 	0.143891
1.570891 	0.139127
1.571019 	0.134366
1.571146 	0.129618
1.571274 	0.12487
1.571401 	0.120123
1.571529 	0.116164
1.571656 	0.11243
1.571784 	0.108694
1.571911 	0.104961
1.572039 	0.101222
1.572166 	0.097475
1.572294 	0.09373
1.572421 	0.089986
1.572549 	0.086992
1.572676 	0.084051
1.572804 	0.081108
1.572932 	0.078168
1.573059 	0.075227
1.573187 	0.072286
1.573314 	0.069346
1.573442 	0.066482
1.57357	 0.064322
1.573697 	0.062161
1.573825 	0.060002
1.573953 	0.057843
1.57408	 0.055686
1.574208 	0.053534
1.574336 	0.05138
1.574463 	0.049376
1.574591 	0.047794
1.574719 	0.046212
1.574847 	0.04463
1.574974 	0.043048
1.575102 	0.041463
1.57523	 0.039876
1.575358 	0.03829
1.575486 	0.036872
1.575613 	0.035677
1.575741 	0.034482
1.575869 	0.033287
1.575997 	0.032092
1.576125 	0.030898
1.576253 	0.029704
1.57638	 0.028509
1.576508 	0.027503
1.576636 	0.026617
1.576764 	0.025732
1.576892 	0.024847
1.57702	 0.023962
1.577148 	0.023077
1.577276 	0.022192
1.577404 	0.021307
1.577532 	0.020605
1.57766	 0.019953
1.577788 	0.0193
1.577916 	0.018648
1.578044 	0.017996
1.578172 	0.017346
1.5783	 0.016696
1.578428 	0.016045
1.578556 	0.015568
1.578684 	0.015096
1.578812 	0.014624
1.57894	 0.014151
1.579068 	0.013678
1.579196 	0.013204
1.579324 	0.01273
1.579452 	0.012279
1.579581 	0.011942
1.579709 	0.011605
1.579837 	0.011269
1.579965 	0.010932
1.580093 	0.010595
1.580221 	0.010259
1.58035	 0.009923
1.580478 	0.009596
1.580606 	0.009285
1.580734 	0.008975
1.580862 	0.008665
1.580991 	0.008355
1.581119 	0.008045
1.581247 	0.007736
1.581375 	0.007427
1.581504 	0.007187
1.581632 	0.007001
1.58176	 0.006816
1.581889 	0.00663
1.582017 	0.006445
1.582145 	0.006258
1.582274 	0.006072
1.582402 	0.005886
1.58253	 0.005715
1.582659 	0.005548
1.582787 	0.005382
1.582916 	0.005215
1.583044 	0.005049
1.583172 	0.004883
1.583301 	0.004716
1.583429 	0.00455
1.583558 	0.004411
1.583686 	0.004272
1.583815 	0.004133
1.583943 	0.003995
1.584072 	0.003856
1.5842	 0.003718
1.584329 	0.003579
1.584457 	0.00345
1.584586 	0.003359
1.584714 	0.003269
1.584843 	0.003178
1.584971 	0.003088
1.5851	 0.002997
1.585229 	0.002907
1.585357 	0.002817
1.585486 	0.002729
1.585614 	0.002644
1.585743 	0.002559
1.585872 	0.002474
1.586	 0.00239
1.586129 	0.002305
1.586258 	0.002219
1.586386 	0.002134
1.586515 	0.002084
1.586644 	0.002054
1.586772 	0.002024
1.586901 	0.001993
1.58703	 0.001963
1.587159 	0.001933
1.587287 	0.001903
1.587416 	0.001872
1.587545 	0.001812
1.587674 	0.001748
1.587802 	0.001684
1.587931 	0.001619
1.58806	 0.001555
1.588189 	0.00149
1.588318 	0.001426
1.588447 	0.001366
1.588575 	0.00135
1.588704 	0.001333
1.588833 	0.001317
1.588962 	0.0013
1.589091 	0.001284
1.58922	 0.001267
1.589349 	0.001251
1.589478 	0.001225
1.589607 	0.001182
1.589736 	0.001138
1.589865 	0.001094
1.589994 	0.00105
1.590123 	0.001007
1.590252 	0.000963
1.590381 	0.000919
1.59051	 0.000904
1.590639 	0.000909
1.590768 	0.000914
1.590897 	0.00092
1.591026 	0.000925
1.591155 	0.00093
1.591284 	0.000936
1.591413 	0.000941
1.591542 	0.000912
1.591671 	0.000877
1.5918	 0.000841
1.591929 	0.000806
1.592059 	0.00077
1.592188 	0.000734
1.592317 	0.000699
1.592446 	0.000664
1.592575 	0.000642
1.592704 	0.00062
1.592834 	0.000598
1.592963 	0.000577
1.593092 	0.000555
1.593221 	0.000533
1.593351 	0.000511
1.59348	 0.000494
1.593609 	0.000485
1.593738 	0.000477
1.593868 	0.000469
1.593997 	0.000461
1.594126 	0.000452
1.594256 	0.000444
1.594385 	0.000436
1.594514 	0.000432
1.594644 	0.000431
1.594773 	0.000429
1.594902 	0.000428
1.595032 	0.000426
1.595161 	0.000425
1.595291 	0.000424
1.59542	 0.000422
1.595549 	0.000423
1.595679 	0.000424
1.595808 	0.000426
1.595938 	0.000427
1.596067 	0.000428
1.596197 	0.00043
1.596326 	0.000431
1.596456 	0.000431
1.596585 	0.000426
1.596715 	0.00042
1.596844 	0.000415
1.596974 	0.000409
1.597103 	0.000404
3  0